Frequency (Hz)	Level (dB)
43.066406	-24.319746
86.132812	-17.652180
129.199219	-20.430206
172.265625	-25.189943
215.332031	-23.055843
258.398438	-19.800337
301.464844	-19.562309
344.531250	-19.034651
387.597656	-18.088436
430.664062	-19.619265
473.730469	-22.137699
516.796875	-22.729261
559.863281	-23.596001
602.929688	-25.270880
645.996094	-28.567621
689.062500	-25.201420
732.128906	-28.049980
775.195312	-29.197430
818.261719	-29.783220
861.328125	-28.424118
904.394531	-27.214495
947.460938	-27.346588
990.527344	-26.910288
1033.593750	-23.657379
1076.660156	-25.847097
1119.726562	-28.269585
1162.792969	-26.565981
1205.859375	-28.572960
1248.925781	-31.174908
1291.992188	-29.557236
1335.058594	-29.017416
1378.125000	-28.023232
1421.191406	-29.267023
1464.257812	-33.563347
1507.324219	-31.937346
1550.390625	-29.174803
1593.457031	-30.944702
1636.523438	-34.632412
1679.589844	-33.628651
1722.656250	-30.076441
1765.722656	-29.437759
1808.789062	-32.552235
1851.855469	-34.916145
1894.921875	-35.687054
1937.988281	-34.822056
1981.054688	-34.231892
2024.121094	-34.489086
2067.187500	-31.574707
2110.253906	-30.803589
2153.320312	-33.551212
2196.386719	-35.644596
2239.453125	-37.157673
2282.519531	-34.864281
2325.585938	-32.881607
2368.652344	-34.996021
2411.718750	-39.052521
2454.785156	-40.087948
2497.851562	-38.522739
2540.917969	-35.834850
2583.984375	-33.030949
2627.050781	-32.751717
2670.117188	-34.934467
2713.183594	-36.575672
2756.250000	-35.264259
2799.316406	-34.405228
2842.382812	-34.862343
2885.449219	-36.526016
2928.515625	-36.499447
2971.582031	-37.086559
3014.648438	-36.985130
3057.714844	-35.035496
3100.781250	-32.958801
3143.847656	-33.484608
3186.914062	-36.067158
3229.980469	-37.814686
3273.046875	-38.414703
3316.113281	-39.130955
3359.179688	-39.998867
3402.246094	-39.413502
3445.312500	-37.330593
3488.378906	-35.633953
3531.445312	-35.551971
3574.511719	-37.463802
3617.578125	-38.898289
3660.644531	-37.807968
3703.710938	-36.937141
3746.777344	-38.489277
3789.843750	-39.447609
3832.910156	-39.603039
3875.976562	-41.209129
3919.042969	-42.069679
3962.109375	-42.327549
4005.175781	-42.587494
4048.242188	-42.465157
4091.308594	-41.133678
4134.375000	-39.463604
4177.441406	-38.755836
4220.507812	-38.870472
4263.574219	-39.403290
4306.640625	-39.176620
4349.707031	-39.729362
4392.773438	-42.341198
4435.839844	-43.561333
4478.906250	-43.933521
4521.972656	-43.338623
4565.039062	-43.064285
4608.105469	-42.861526
4651.171875	-42.301323
4694.238281	-42.363758
4737.304688	-42.952396
4780.371094	-43.747047
4823.437500	-43.469578
4866.503906	-42.430496
4909.570312	-42.179638
4952.636719	-43.248402
4995.703125	-45.406586
5038.769531	-45.174084
5081.835938	-43.212952
5124.902344	-42.223198
5167.968750	-43.653339
5211.035156	-44.579731
5254.101562	-44.575092
5297.167969	-45.120644
5340.234375	-46.268555
5383.300781	-47.638058
5426.367188	-48.448448
5469.433594	-48.128323
5512.500000	-47.965729
5555.566406	-47.497345
5598.632812	-46.761990
5641.699219	-45.647087
5684.765625	-45.478687
5727.832031	-45.982479
5770.898438	-47.200146
5813.964844	-46.574589
5857.031250	-45.863800
5900.097656	-45.929501
5943.164062	-47.288559
5986.230469	-47.397991
6029.296875	-45.476898
6072.363281	-43.400513
6115.429688	-42.388271
6158.496094	-42.143837
6201.562500	-43.449162
6244.628906	-45.787605
6287.695312	-47.335945
6330.761719	-47.827366
6373.828125	-48.577316
6416.894531	-49.634510
6459.960938	-50.008888
6503.027344	-49.874756
6546.093750	-49.737625
6589.160156	-49.901733
6632.226562	-50.107094
6675.292969	-50.341045
6718.359375	-50.422363
6761.425781	-50.593426
6804.492188	-50.454655
6847.558594	-50.263927
6890.625000	-50.336823
6933.691406	-50.196198
6976.757812	-49.934086
7019.824219	-49.494133
7062.890625	-49.462448
7105.957031	-49.977810
7149.023438	-50.447426
7192.089844	-50.771931
7235.156250	-50.550819
7278.222656	-48.419979
7321.289062	-46.641712
7364.355469	-45.470257
7407.421875	-44.955761
7450.488281	-45.285721
7493.554688	-46.149323
7536.621094	-47.301239
7579.687500	-49.212151
7622.753906	-51.142212
7665.820312	-51.735348
7708.886719	-51.703545
7751.953125	-51.343414
7795.019531	-51.257694
7838.085938	-51.523472
7881.152344	-51.823292
7924.218750	-52.340424
7967.285156	-52.838589
8010.351562	-53.100281
8053.417969	-53.238476
8096.484375	-53.442883
8139.550781	-53.673264
8182.617188	-53.868389
8225.683594	-53.885166
8268.750000	-53.756882
8311.816406	-53.894749
8354.882812	-54.299900
8397.949219	-54.259525
8441.015625	-54.586723
8484.082031	-55.302639
8527.148438	-55.776741
8570.214844	-55.760750
8613.281250	-55.747650
8656.347656	-55.699413
8699.414062	-55.225819
8742.480469	-53.885342
8785.546875	-53.111992
8828.613281	-52.405090
8871.679688	-52.190361
8914.746094	-52.841366
8957.812500	-52.984444
9000.878906	-52.576290
9043.945312	-53.782707
9087.011719	-54.932518
9130.078125	-55.800926
9173.144531	-56.527004
9216.210938	-57.128910
9259.277344	-57.424004
9302.343750	-58.039070
9345.410156	-57.672451
9388.476562	-57.024551
9431.542969	-57.502827
9474.609375	-58.285164
9517.675781	-58.974083
9560.742188	-58.565590
9603.808594	-57.954395
9646.875000	-58.632317
9689.941406	-58.918770
9733.007812	-58.868896
9776.074219	-58.968586
9819.140625	-59.295494
9862.207031	-59.520729
9905.273438	-59.727730
9948.339844	-59.638081
9991.406250	-59.045803
10034.472656	-59.706409
10077.539062	-60.749897
10120.605469	-60.805557
10163.671875	-60.010399
10206.738281	-60.164848
10249.804688	-61.343597
10292.871094	-61.942799
10335.937500	-62.052032
10379.003906	-61.669514
10422.070312	-60.949806
10465.136719	-61.128040
10508.203125	-61.469227
10551.269531	-61.053734
10594.335938	-60.436260
10637.402344	-61.233540
10680.468750	-62.419399
10723.535156	-62.222935
10766.601562	-60.185020
10809.667969	-59.607883
10852.734375	-62.069992
10895.800781	-63.495186
10938.867188	-63.997124
10981.933594	-63.755379
11025.000000	-62.678322
11068.066406	-62.592796
11111.132812	-61.955959
11154.199219	-61.118969
11197.265625	-61.500660
11240.332031	-62.379627
11283.398438	-62.485767
11326.464844	-62.365799
11369.531250	-62.102070
11412.597656	-62.547600
11455.664062	-63.259644
11498.730469	-63.325016
11541.796875	-63.133675
11584.863281	-63.265614
11627.929688	-63.101601
11670.996094	-61.989559
11714.062500	-61.688480
11757.128906	-62.125896
11800.195312	-62.275978
11843.261719	-62.621975
11886.328125	-63.172791
11929.394531	-63.467850
11972.460938	-63.726967
12015.527344	-63.704601
12058.593750	-63.489292
12101.660156	-63.284172
12144.726562	-63.825062
12187.792969	-61.838520
12230.859375	-62.743736
12273.925781	-64.771629
12316.992188	-65.073502
12360.058594	-65.339890
12403.125000	-65.063637
12446.191406	-64.062119
12489.257812	-63.915230
12532.324219	-63.692627
12575.390625	-64.142807
12618.457031	-64.880119
12661.523438	-64.482552
12704.589844	-63.435772
12747.656250	-63.867470
12790.722656	-63.390362
12833.789062	-63.449722
12876.855469	-63.445538
12919.921875	-63.969662
12962.988281	-64.238167
13006.054688	-64.212265
13049.121094	-65.038483
13092.187500	-65.164307
13135.253906	-65.123512
13178.320312	-65.250298
13221.386719	-65.479042
13264.453125	-65.628006
13307.519531	-65.680473
13350.585938	-65.466011
13393.652344	-65.112503
13436.718750	-64.751877
13479.785156	-65.540001
13522.851562	-64.951454
13565.917969	-64.790382
13608.984375	-64.658791
13652.050781	-64.155251
13695.117188	-63.939404
13738.183594	-64.713379
13781.250000	-65.219833
13824.316406	-64.015121
13867.382812	-62.686348
13910.449219	-63.195782
13953.515625	-63.946705
13996.582031	-63.904602
14039.648438	-65.468544
14082.714844	-66.347801
14125.781250	-65.995003
14168.847656	-65.422493
14211.914062	-65.167923
14254.980469	-65.120377
14298.046875	-65.020584
14341.113281	-66.406693
14384.179688	-66.564293
14427.246094	-66.358688
14470.312500	-66.365822
14513.378906	-65.823166
14556.445312	-65.183907
14599.511719	-65.697517
14642.578125	-65.297157
14685.644531	-65.957283
14728.710938	-66.978439
14771.777344	-67.651024
14814.843750	-66.832184
14857.910156	-64.990135
14900.976562	-64.713936
14944.042969	-65.701569
14987.109375	-64.902550
15030.175781	-65.818146
15073.242188	-67.396873
15116.308594	-68.745499
15159.375000	-69.315697
15202.441406	-67.777229
15245.507812	-66.811935
15288.574219	-66.434380
15331.640625	-66.037354
15374.707031	-66.074333
15417.773438	-66.900818
15460.839844	-67.537201
15503.906250	-66.891312
15546.972656	-67.629539
15590.039062	-67.515373
15633.105469	-67.006004
15676.171875	-66.878792
15719.238281	-68.302063
15762.304688	-70.272545
15805.371094	-70.463928
15848.437500	-70.297165
15891.503906	-70.630623
15934.570312	-71.180817
15977.636719	-70.977646
16020.703125	-71.205124
16063.769531	-71.576790
16106.835938	-70.409180
16149.902344	-69.880997
16192.968750	-68.897247
16236.035156	-69.170471
16279.101562	-69.395515
16322.167969	-69.707260
16365.234375	-71.263870
16408.300781	-72.647896
16451.367188	-73.033371
16494.433594	-72.236305
16537.500000	-72.856041
16580.566406	-73.892982
16623.632812	-73.458405
16666.699219	-72.578209
16709.765625	-72.351051
16752.832031	-72.932526
16795.898438	-73.778473
16838.964844	-75.426865
16882.031250	-74.848244
16925.097656	-72.787148
16968.164062	-71.555153
17011.230469	-71.912643
17054.296875	-71.570160
17097.363281	-71.035217
17140.429688	-73.796478
17183.496094	-75.475914
17226.562500	-74.912636
17269.628906	-75.353729
17312.695312	-75.962906
17355.761719	-75.379044
17398.828125	-74.030800
17441.894531	-73.745789
17484.960938	-74.264572
17528.027344	-75.637497
17571.093750	-74.685394
17614.160156	-73.778023
17657.226562	-75.097008
17700.292969	-76.216011
17743.359375	-78.083160
17786.425781	-77.685478
17829.492188	-77.915688
17872.558594	-76.742683
17915.625000	-77.792732
17958.691406	-77.882301
18001.757812	-77.331963
18044.824219	-79.109085
18087.890625	-78.581627
18130.957031	-78.305008
18174.023438	-80.330399
18217.089844	-82.525795
18260.156250	-81.319481
18303.222656	-79.607079
18346.289062	-77.678520
18389.355469	-77.759529
18432.421875	-79.086769
18475.488281	-79.063103
18518.554688	-81.170174
18561.621094	-81.934029
18604.687500	-80.165070
18647.753906	-78.495552
18690.820312	-76.631248
18733.886719	-77.337395
18776.953125	-77.717377
18820.019531	-78.340355
18863.085938	-80.096031
18906.152344	-81.497963
18949.218750	-82.613754
18992.285156	-81.246178
19035.351562	-78.905449
19078.417969	-78.313828
19121.484375	-79.085869
19164.550781	-79.717636
19207.617188	-79.081955
19250.683594	-80.475121
19293.750000	-81.945053
19336.816406	-82.489822
19379.882812	-82.477905
19422.949219	-82.759895
19466.015625	-82.527985
19509.082031	-82.366203
19552.148438	-85.044289
19595.214844	-88.120476
19638.281250	-90.692230
19681.347656	-90.637207
19724.414062	-89.790588
19767.480469	-92.983543
19810.546875	-96.145012
19853.613281	-96.560371
19896.679688	-99.069016
19939.746094	-103.281288
19982.812500	-104.705925
20025.878906	-105.485199
20068.945312	-105.849770
20112.011719	-105.670891
20155.078125	-108.796188
20198.144531	-111.528526
20241.210938	-110.080772
20284.277344	-110.907188
20327.343750	-113.772720
20370.410156	-113.118088
20413.476562	-113.487030
20456.542969	-114.403809
20499.609375	-112.219368
20542.675781	-110.400253
20585.742188	-111.641525
20628.808594	-115.334343
20671.875000	-116.808823
20714.941406	-117.479797
20758.007812	-117.350716
20801.074219	-117.189735
20844.140625	-117.128311
20887.207031	-117.279968
20930.273438	-117.420807
20973.339844	-117.629440
21016.406250	-117.757881
21059.472656	-117.692772
21102.539062	-117.573891
21145.605469	-117.601868
21188.671875	-117.705032
21231.738281	-117.948586
21274.804688	-118.063545
21317.871094	-117.965454
21360.937500	-117.861351
21404.003906	-117.925438
21447.070312	-118.068459
21490.136719	-117.993103
21533.203125	-117.996452
21576.269531	-117.899132
21619.335938	-117.877930
21662.402344	-117.985649
21705.468750	-117.967621
21748.535156	-117.980751
21791.601562	-117.803841
21834.667969	-117.770454
21877.734375	-117.525604
21920.800781	-117.639198
21963.867188	-117.970566
22006.933594	-117.839783
