Frequency (Hz)	Level (dB)
43.066406	-23.961037
86.132812	-17.373587
129.199219	-20.283125
172.265625	-25.224197
215.332031	-23.095135
258.398438	-19.811928
301.464844	-19.395958
344.531250	-18.692919
387.597656	-17.876568
430.664062	-19.630587
473.730469	-22.239035
516.796875	-22.948839
559.863281	-23.639923
602.929688	-25.087130
645.996094	-28.025372
689.062500	-24.632326
732.128906	-27.615902
775.195312	-28.811392
818.261719	-29.414005
861.328125	-28.157040
904.394531	-27.391264
947.460938	-27.746733
990.527344	-26.808165
1033.593750	-23.535006
1076.660156	-25.846300
1119.726562	-28.147257
1162.792969	-26.325935
1205.859375	-28.406637
1248.925781	-31.024233
1291.992188	-29.261551
1335.058594	-28.710627
1378.125000	-27.651230
1421.191406	-28.860010
1464.257812	-33.287270
1507.324219	-31.665886
1550.390625	-28.842873
1593.457031	-30.722172
1636.523438	-34.639816
1679.589844	-33.748058
1722.656250	-30.096567
1765.722656	-29.428106
1808.789062	-32.598621
1851.855469	-35.091461
1894.921875	-35.992184
1937.988281	-34.941868
1981.054688	-34.168400
2024.121094	-34.419888
2067.187500	-31.305122
2110.253906	-30.521671
2153.320312	-33.358448
2196.386719	-35.373306
2239.453125	-37.066486
2282.519531	-34.754337
2325.585938	-32.510151
2368.652344	-34.466358
2411.718750	-38.732040
2454.785156	-40.032364
2497.851562	-38.574215
2540.917969	-35.998333
2583.984375	-33.282269
2627.050781	-33.055481
2670.117188	-35.218258
2713.183594	-36.801014
2756.250000	-35.302979
2799.316406	-34.345676
2842.382812	-34.812347
2885.449219	-36.605488
2928.515625	-36.551945
2971.582031	-37.107063
3014.648438	-37.115261
3057.714844	-35.039715
3100.781250	-32.765705
3143.847656	-33.318169
3186.914062	-36.072872
3229.980469	-37.965900
3273.046875	-38.616627
3316.113281	-39.400562
3359.179688	-40.432392
3402.246094	-39.784241
3445.312500	-37.578022
3488.378906	-35.878948
3531.445312	-35.831738
3574.511719	-37.752792
3617.578125	-39.103748
3660.644531	-37.941219
3703.710938	-37.009064
3746.777344	-38.641735
3789.843750	-39.727699
3832.910156	-39.924442
3875.976562	-41.546249
3919.042969	-42.345299
3962.109375	-42.605377
4005.175781	-43.155918
4048.242188	-43.161922
4091.308594	-41.515724
4134.375000	-39.667850
4177.441406	-38.871021
4220.507812	-39.024029
4263.574219	-39.941357
4306.640625	-39.706966
4349.707031	-40.176300
4392.773438	-43.120838
4435.839844	-44.536728
4478.906250	-44.766541
4521.972656	-44.173801
4565.039062	-43.870094
4608.105469	-43.632206
4651.171875	-42.938965
4694.238281	-42.895184
4737.304688	-43.313210
4780.371094	-43.962582
4823.437500	-43.640877
4866.503906	-42.630039
4909.570312	-42.335400
4952.636719	-43.403599
4995.703125	-45.885464
5038.769531	-45.867916
5081.835938	-43.716690
5124.902344	-42.621819
5167.968750	-44.128834
5211.035156	-45.176846
5254.101562	-45.084240
5297.167969	-45.756413
5340.234375	-47.298809
5383.300781	-48.899330
5426.367188	-49.574345
5469.433594	-49.084465
5512.500000	-49.104347
5555.566406	-48.700542
5598.632812	-47.725414
5641.699219	-46.280109
5684.765625	-46.011486
5727.832031	-46.367153
5770.898438	-47.492657
5813.964844	-46.608635
5857.031250	-45.964973
5900.097656	-46.191235
5943.164062	-47.867615
5986.230469	-48.403122
6029.296875	-46.420761
6072.363281	-44.133980
6115.429688	-42.868977
6158.496094	-42.401028
6201.562500	-44.082310
6244.628906	-47.567127
6287.695312	-49.823944
6330.761719	-50.497578
6373.828125	-51.346313
6416.894531	-52.193470
6459.960938	-51.758598
6503.027344	-50.925232
6546.093750	-50.877720
6589.160156	-51.345596
6632.226562	-51.701180
6675.292969	-51.911118
6718.359375	-51.869499
6761.425781	-52.046635
6804.492188	-51.995533
6847.558594	-51.882584
6890.625000	-51.776012
6933.691406	-51.532467
6976.757812	-51.225861
7019.824219	-50.596474
7062.890625	-50.620815
7105.957031	-51.391579
7149.023438	-52.001251
7192.089844	-52.240543
7235.156250	-51.801888
7278.222656	-49.144032
7321.289062	-46.986378
7364.355469	-45.476006
7407.421875	-45.024239
7450.488281	-45.567650
7493.554688	-46.492031
7536.621094	-47.705070
7579.687500	-49.993111
7622.753906	-52.498825
7665.820312	-53.298378
7708.886719	-53.247219
7751.953125	-52.924046
7795.019531	-52.820591
7838.085938	-53.079788
7881.152344	-53.257561
7924.218750	-53.785931
7967.285156	-54.640301
8010.351562	-55.340763
8053.417969	-55.683197
8096.484375	-55.782902
8139.550781	-56.138054
8182.617188	-56.476269
8225.683594	-56.681789
8268.750000	-56.895672
8311.816406	-57.225548
8354.882812	-57.784409
8397.949219	-58.008732
8441.015625	-58.203468
8484.082031	-59.046616
8527.148438	-60.068584
8570.214844	-60.836872
8613.281250	-61.057583
8656.347656	-60.869148
8699.414062	-59.845497
8742.480469	-58.220135
8785.546875	-57.682938
8828.613281	-56.430576
8871.679688	-54.878277
8914.746094	-54.956890
8957.812500	-55.435032
9000.878906	-56.250423
9043.945312	-57.723633
9087.011719	-60.115086
9130.078125	-61.922462
9173.144531	-62.325977
9216.210938	-62.790966
9259.277344	-63.370861
9302.343750	-63.788094
9345.410156	-63.879814
9388.476562	-64.343384
9431.542969	-65.332436
9474.609375	-65.890900
9517.675781	-66.847679
9560.742188	-67.696327
9603.808594	-67.665306
9646.875000	-67.812469
9689.941406	-67.899780
9733.007812	-68.034203
9776.074219	-68.468300
9819.140625	-68.041336
9862.207031	-67.531570
9905.273438	-67.640236
9948.339844	-68.192810
9991.406250	-68.681557
10034.472656	-69.477554
10077.539062	-70.216309
10120.605469	-70.909660
10163.671875	-71.368324
10206.738281	-71.748741
10249.804688	-71.805008
10292.871094	-71.349777
10335.937500	-71.059143
10379.003906	-71.459312
10422.070312	-71.565186
10465.136719	-70.832687
10508.203125	-69.597534
10551.269531	-69.299309
10594.335938	-69.298500
10637.402344	-69.747131
10680.468750	-70.711594
10723.535156	-71.559837
10766.601562	-72.368843
10809.667969	-72.832939
10852.734375	-72.808182
10895.800781	-72.092079
10938.867188	-72.550240
10981.933594	-73.161652
11025.000000	-73.089622
11068.066406	-73.059120
11111.132812	-73.613129
11154.199219	-73.993088
11197.265625	-73.267601
11240.332031	-72.648582
11283.398438	-72.298691
11326.464844	-72.308495
11369.531250	-73.076485
11412.597656	-73.794930
11455.664062	-74.573891
11498.730469	-75.141937
11541.796875	-75.504921
11584.863281	-75.872330
11627.929688	-75.942810
11670.996094	-75.710876
11714.062500	-75.972633
11757.128906	-77.211090
11800.195312	-77.501823
11843.261719	-77.734573
11886.328125	-77.351456
11929.394531	-77.007721
11972.460938	-76.260963
12015.527344	-75.387314
12058.593750	-75.067833
12101.660156	-75.859039
12144.726562	-76.906349
12187.792969	-76.834068
12230.859375	-76.757675
12273.925781	-77.236900
12316.992188	-77.843651
12360.058594	-78.145729
12403.125000	-78.006660
12446.191406	-77.793999
12489.257812	-77.722099
12532.324219	-78.098511
12575.390625	-77.229668
12618.457031	-76.682892
12661.523438	-77.255821
12704.589844	-77.475548
12747.656250	-77.519432
12790.722656	-77.928093
12833.789062	-78.243240
12876.855469	-77.297035
12919.921875	-77.284935
12962.988281	-78.027977
13006.054688	-77.790344
13049.121094	-78.473206
13092.187500	-78.581650
13135.253906	-78.932007
13178.320312	-78.315910
13221.386719	-78.012680
13264.453125	-78.650497
13307.519531	-78.979210
13350.585938	-78.316261
13393.652344	-77.906624
13436.718750	-78.862808
13479.785156	-78.936722
13522.851562	-79.002220
13565.917969	-78.802261
13608.984375	-78.689148
13652.050781	-79.156731
13695.117188	-78.849037
13738.183594	-79.930130
13781.250000	-80.655373
13824.316406	-81.348892
13867.382812	-80.959488
13910.449219	-80.707741
13953.515625	-81.686691
13996.582031	-82.069382
14039.648438	-81.843185
14082.714844	-80.778481
14125.781250	-80.758064
14168.847656	-81.078354
14211.914062	-81.447968
14254.980469	-82.258308
14298.046875	-82.391296
14341.113281	-82.620659
14384.179688	-83.037727
14427.246094	-83.467400
14470.312500	-82.601349
14513.378906	-82.208412
14556.445312	-82.245178
14599.511719	-81.728004
14642.578125	-82.895264
14685.644531	-82.734535
14728.710938	-81.909393
14771.777344	-80.725174
14814.843750	-80.327110
14857.910156	-80.681770
14900.976562	-80.765297
14944.042969	-81.465935
14987.109375	-81.947990
15030.175781	-82.846008
15073.242188	-82.832069
15116.308594	-82.663620
15159.375000	-83.487213
15202.441406	-82.922668
15245.507812	-83.300331
15288.574219	-82.794983
15331.640625	-83.327942
15374.707031	-83.798401
15417.773438	-83.334648
15460.839844	-83.069366
15503.906250	-82.731766
15546.972656	-82.467857
15590.039062	-80.853157
15633.105469	-81.357254
15676.171875	-82.186218
15719.238281	-82.577148
15762.304688	-84.190559
15805.371094	-85.197067
15848.437500	-85.787109
15891.503906	-86.825287
15934.570312	-85.676392
15977.636719	-85.273293
16020.703125	-85.482941
16063.769531	-86.282265
16106.835938	-86.696144
16149.902344	-87.036591
16192.968750	-85.531380
16236.035156	-84.788284
16279.101562	-84.177887
16322.167969	-85.477661
16365.234375	-86.444229
16408.300781	-85.677467
16451.367188	-86.987076
16494.433594	-87.337463
16537.500000	-89.261589
16580.566406	-89.095299
16623.632812	-89.020164
16666.699219	-88.458687
16709.765625	-86.564087
16752.832031	-87.763504
16795.898438	-87.782944
16838.964844	-87.744606
16882.031250	-84.858894
16925.097656	-86.425285
16968.164062	-88.302475
17011.230469	-85.496468
17054.296875	-85.883858
17097.363281	-86.179199
17140.429688	-87.101219
17183.496094	-87.659439
17226.562500	-87.227814
17269.628906	-86.698776
17312.695312	-86.484406
17355.761719	-86.976006
17398.828125	-85.009094
17441.894531	-87.317543
17484.960938	-85.842896
17528.027344	-85.379829
17571.093750	-85.242020
17614.160156	-84.542755
17657.226562	-86.642876
17700.292969	-84.678558
17743.359375	-84.681038
17786.425781	-83.834099
17829.492188	-85.559883
17872.558594	-87.754837
17915.625000	-87.489632
17958.691406	-88.847610
18001.757812	-87.097267
18044.824219	-87.802681
18087.890625	-87.272255
18130.957031	-87.364761
18174.023438	-86.602631
18217.089844	-86.241989
18260.156250	-86.058136
18303.222656	-83.793022
18346.289062	-85.147995
18389.355469	-83.702377
18432.421875	-85.655807
18475.488281	-88.232086
18518.554688	-87.854004
18561.621094	-87.591759
18604.687500	-87.920326
18647.753906	-89.165878
18690.820312	-87.546524
18733.886719	-87.182411
18776.953125	-86.741638
18820.019531	-86.243370
18863.085938	-87.161324
18906.152344	-86.808319
18949.218750	-87.238380
18992.285156	-84.651108
19035.351562	-86.434769
19078.417969	-85.156479
19121.484375	-85.217506
19164.550781	-87.809402
19207.617188	-86.966270
19250.683594	-87.249374
19293.750000	-84.423790
19336.816406	-86.471382
19379.882812	-86.393867
19422.949219	-86.455872
19466.015625	-87.211502
19509.082031	-87.144547
19552.148438	-88.133224
19595.214844	-88.444107
19638.281250	-87.967598
19681.347656	-86.913483
19724.414062	-87.658981
19767.480469	-85.744926
19810.546875	-84.572212
19853.613281	-88.304100
19896.679688	-87.211281
19939.746094	-89.103416
19982.812500	-88.472198
20025.878906	-88.437927
20068.945312	-88.061348
20112.011719	-87.262756
20155.078125	-87.854164
20198.144531	-90.030930
20241.210938	-88.975883
20284.277344	-86.622612
20327.343750	-88.707039
20370.410156	-89.085091
20413.476562	-87.058502
20456.542969	-89.858467
20499.609375	-90.223862
20542.675781	-92.091652
20585.742188	-90.847473
20628.808594	-92.317413
20671.875000	-93.276932
20714.941406	-91.859619
20758.007812	-93.759644
20801.074219	-92.217461
20844.140625	-93.386932
20887.207031	-91.177002
20930.273438	-92.404755
20973.339844	-92.863525
21016.406250	-93.029015
21059.472656	-95.801315
21102.539062	-92.763657
21145.605469	-95.263145
21188.671875	-91.790390
21231.738281	-93.662949
21274.804688	-94.579987
21317.871094	-94.314995
21360.937500	-98.554787
21404.003906	-98.315063
21447.070312	-96.919037
21490.136719	-89.851456
21533.203125	-92.836769
21576.269531	-96.620033
21619.335938	-96.024193
21662.402344	-98.611870
21705.468750	-96.139015
21748.535156	-99.542747
21791.601562	-96.122437
21834.667969	-98.885063
21877.734375	-96.771103
21920.800781	-96.336128
21963.867188	-98.046730
22006.933594	-95.705772
