Frequency (Hz)	Level (dB)
43.066406	-24.145037
86.132812	-17.560219
129.199219	-20.383148
172.265625	-25.186481
215.332031	-23.122225
258.398438	-19.980169
301.464844	-19.793272
344.531250	-19.213383
387.597656	-18.184490
430.664062	-19.595654
473.730469	-21.982193
516.796875	-22.529905
559.863281	-23.479153
602.929688	-25.163355
645.996094	-28.299067
689.062500	-24.909731
732.128906	-27.822573
775.195312	-29.057861
818.261719	-29.620937
861.328125	-28.346058
904.394531	-27.228165
947.460938	-27.361286
990.527344	-26.791037
1033.593750	-23.550627
1076.660156	-25.821135
1119.726562	-28.273970
1162.792969	-26.446022
1205.859375	-28.420433
1248.925781	-31.121904
1291.992188	-29.555811
1335.058594	-29.018084
1378.125000	-28.032223
1421.191406	-29.291750
1464.257812	-33.594841
1507.324219	-31.951372
1550.390625	-29.139996
1593.457031	-30.904139
1636.523438	-34.660492
1679.589844	-33.678253
1722.656250	-30.098206
1765.722656	-29.468914
1808.789062	-32.602043
1851.855469	-34.970154
1894.921875	-35.795757
1937.988281	-34.909992
1981.054688	-34.274345
2024.121094	-34.507366
2067.187500	-31.539928
2110.253906	-30.755688
2153.320312	-33.534977
2196.386719	-35.604397
2239.453125	-37.089199
2282.519531	-34.751617
2325.585938	-32.593670
2368.652344	-34.575935
2411.718750	-38.751263
2454.785156	-39.988266
2497.851562	-38.524956
2540.917969	-35.915775
2583.984375	-33.248425
2627.050781	-33.019535
2670.117188	-35.137478
2713.183594	-36.689388
2756.250000	-35.310627
2799.316406	-34.435375
2842.382812	-34.908710
2885.449219	-36.567436
2928.515625	-36.450878
2971.582031	-37.013527
3014.648438	-36.948761
3057.714844	-34.962311
3100.781250	-32.815369
3143.847656	-33.349854
3186.914062	-36.005451
3229.980469	-37.848152
3273.046875	-38.529900
3316.113281	-39.351372
3359.179688	-40.320992
3402.246094	-39.642239
3445.312500	-37.431873
3488.378906	-35.652908
3531.445312	-35.531773
3574.511719	-37.445850
3617.578125	-38.937443
3660.644531	-37.886776
3703.710938	-36.998329
3746.777344	-38.557537
3789.843750	-39.543922
3832.910156	-39.703766
3875.976562	-41.351948
3919.042969	-42.227524
3962.109375	-42.525005
4005.175781	-42.908871
4048.242188	-42.883377
4091.308594	-41.472279
4134.375000	-39.788246
4177.441406	-39.089531
4220.507812	-39.204395
4263.574219	-39.781368
4306.640625	-39.567032
4349.707031	-40.105705
4392.773438	-42.779064
4435.839844	-44.032894
4478.906250	-44.305611
4521.972656	-43.634388
4565.039062	-43.404171
4608.105469	-43.257324
4651.171875	-42.683128
4694.238281	-42.666565
4737.304688	-43.210224
4780.371094	-44.002369
4823.437500	-43.749077
4866.503906	-42.727383
4909.570312	-42.491680
4952.636719	-43.565498
4995.703125	-45.752213
5038.769531	-45.581486
5081.835938	-43.610748
5124.902344	-42.599258
5167.968750	-44.045746
5211.035156	-45.034985
5254.101562	-45.108570
5297.167969	-45.728081
5340.234375	-47.018646
5383.300781	-48.462246
5426.367188	-49.217346
5469.433594	-48.766281
5512.500000	-48.656639
5555.566406	-48.355579
5598.632812	-47.617973
5641.699219	-46.308998
5684.765625	-45.976971
5727.832031	-46.327419
5770.898438	-47.522945
5813.964844	-46.915424
5857.031250	-46.234177
5900.097656	-46.334866
5943.164062	-47.822144
5986.230469	-47.906601
6029.296875	-45.873940
6072.363281	-43.703728
6115.429688	-42.571758
6158.496094	-42.188236
6201.562500	-43.618008
6244.628906	-46.324581
6287.695312	-48.156399
6330.761719	-48.719322
6373.828125	-49.444180
6416.894531	-50.330624
6459.960938	-50.540005
6503.027344	-50.518559
6546.093750	-50.562141
6589.160156	-50.849949
6632.226562	-51.096008
6675.292969	-51.207684
6718.359375	-51.188438
6761.425781	-51.413624
6804.492188	-51.324566
6847.558594	-51.241020
6890.625000	-51.286167
6933.691406	-51.074070
6976.757812	-50.705666
7019.824219	-50.141506
7062.890625	-50.186909
7105.957031	-50.798622
7149.023438	-51.312244
7192.089844	-51.640789
7235.156250	-51.392876
7278.222656	-49.088596
7321.289062	-47.192703
7364.355469	-45.876453
7407.421875	-45.322639
7450.488281	-45.696842
7493.554688	-46.554718
7536.621094	-47.799397
7579.687500	-50.062828
7622.753906	-52.370777
7665.820312	-52.937534
7708.886719	-52.760727
7751.953125	-52.340660
7795.019531	-52.281078
7838.085938	-52.720356
7881.152344	-53.025032
7924.218750	-53.552784
7967.285156	-54.226223
8010.351562	-54.759808
8053.417969	-55.178410
8096.484375	-55.301361
8139.550781	-55.547222
8182.617188	-55.763214
8225.683594	-55.915257
8268.750000	-55.970997
8311.816406	-56.150257
8354.882812	-56.723713
8397.949219	-56.975006
8441.015625	-57.210896
8484.082031	-58.022392
8527.148438	-59.068569
8570.214844	-59.923367
8613.281250	-60.102844
8656.347656	-59.801746
8699.414062	-58.660622
8742.480469	-56.991215
8785.546875	-56.420387
8828.613281	-55.420952
8871.679688	-54.295311
8914.746094	-54.673264
8957.812500	-55.276577
9000.878906	-55.842400
9043.945312	-57.218731
9087.011719	-59.348576
9130.078125	-60.627003
9173.144531	-60.875866
9216.210938	-61.251324
9259.277344	-61.840008
9302.343750	-62.169186
9345.410156	-62.361271
9388.476562	-62.707485
9431.542969	-63.278332
9474.609375	-63.713936
9517.675781	-64.362358
9560.742188	-64.956703
9603.808594	-65.116669
9646.875000	-65.236763
9689.941406	-65.109467
9733.007812	-65.037254
9776.074219	-65.279160
9819.140625	-65.098259
9862.207031	-64.812088
9905.273438	-65.144264
9948.339844	-65.799339
9991.406250	-66.264755
10034.472656	-66.776741
10077.539062	-67.236092
10120.605469	-67.702049
10163.671875	-68.037575
10206.738281	-68.104347
10249.804688	-67.966446
10292.871094	-67.749863
10335.937500	-67.707176
10379.003906	-67.757004
10422.070312	-67.709297
10465.136719	-67.693291
10508.203125	-67.507599
10551.269531	-67.542450
10594.335938	-67.720459
10637.402344	-68.176102
10680.468750	-68.962250
10723.535156	-69.585732
10766.601562	-70.044586
10809.667969	-70.222763
10852.734375	-70.195366
10895.800781	-70.113884
10938.867188	-70.313858
10981.933594	-70.513420
11025.000000	-70.506790
11068.066406	-70.659859
11111.132812	-71.056679
11154.199219	-71.283478
11197.265625	-71.021149
11240.332031	-70.747345
11283.398438	-70.543800
11326.464844	-70.552750
11369.531250	-71.276131
11412.597656	-71.564110
11455.664062	-71.696045
11498.730469	-72.195709
11541.796875	-72.524910
11584.863281	-72.473228
11627.929688	-72.643906
11670.996094	-72.965355
11714.062500	-73.111252
11757.128906	-73.231041
11800.195312	-73.063248
11843.261719	-73.072609
11886.328125	-72.887283
11929.394531	-72.759201
11972.460938	-72.557716
12015.527344	-72.533516
12058.593750	-72.908516
12101.660156	-73.571968
12144.726562	-73.924194
12187.792969	-74.121391
12230.859375	-74.202797
12273.925781	-74.391136
12316.992188	-74.586197
12360.058594	-74.578941
12403.125000	-74.489563
12446.191406	-74.395050
12489.257812	-74.365761
12532.324219	-74.555252
12575.390625	-74.513962
12618.457031	-74.405441
12661.523438	-74.536697
12704.589844	-74.661118
12747.656250	-74.744011
12790.722656	-75.024376
12833.789062	-75.296051
12876.855469	-75.549622
12919.921875	-75.685944
12962.988281	-75.631294
13006.054688	-75.676239
13049.121094	-75.880539
13092.187500	-75.727119
13135.253906	-75.646881
13178.320312	-75.527817
13221.386719	-75.825424
13264.453125	-75.886879
13307.519531	-75.856430
13350.585938	-75.780685
13393.652344	-75.686470
13436.718750	-75.965881
13479.785156	-76.219170
13522.851562	-76.367035
13565.917969	-76.566719
13608.984375	-76.693504
13652.050781	-76.607742
13695.117188	-76.674057
13738.183594	-76.739883
13781.250000	-76.858795
13824.316406	-77.120903
13867.382812	-76.926605
13910.449219	-77.038307
13953.515625	-77.220695
13996.582031	-77.209984
14039.648438	-77.167000
14082.714844	-77.171684
14125.781250	-77.278473
14168.847656	-77.334869
14211.914062	-77.445480
14254.980469	-77.624619
14298.046875	-77.753510
14341.113281	-77.707619
14384.179688	-77.963310
14427.246094	-78.081306
14470.312500	-78.118568
14513.378906	-78.330063
14556.445312	-78.151672
14599.511719	-78.192139
14642.578125	-78.430038
14685.644531	-78.546288
14728.710938	-78.423012
14771.777344	-78.252472
14814.843750	-78.307175
14857.910156	-78.386452
14900.976562	-78.594528
14944.042969	-78.851349
14987.109375	-79.069756
15030.175781	-79.150024
15073.242188	-79.078392
15116.308594	-79.069710
15159.375000	-79.371201
15202.441406	-79.532532
15245.507812	-79.474632
15288.574219	-79.531013
15331.640625	-79.569977
15374.707031	-79.572212
15417.773438	-79.464478
15460.839844	-79.273285
15503.906250	-79.365753
15546.972656	-79.407722
15590.039062	-79.449837
15633.105469	-79.785828
15676.171875	-79.950401
15719.238281	-80.966705
15762.304688	-86.214500
15805.371094	-95.359627
15848.437500	-99.849518
15891.503906	-109.042244
15934.570312	-118.075600
15977.636719	-119.647873
16020.703125	-120.285561
16063.769531	-120.936974
16106.835938	-121.634415
16149.902344	-122.252701
16192.968750	-122.452576
16236.035156	-122.420593
16279.101562	-122.102180
16322.167969	-122.047813
16365.234375	-122.487183
16408.300781	-123.172836
16451.367188	-123.742180
16494.433594	-125.292404
16537.500000	-127.015106
16580.566406	-128.768936
16623.632812	-130.126266
16666.699219	-132.864792
16709.765625	-136.893967
16752.832031	-135.288254
16795.898438	-133.584961
16838.964844	-134.619293
16882.031250	-136.210037
16925.097656	-134.859665
16968.164062	-133.372116
17011.230469	-134.539413
17054.296875	-136.675156
17097.363281	-135.129333
17140.429688	-133.904266
17183.496094	-135.351028
17226.562500	-137.340424
17269.628906	-135.750900
17312.695312	-134.200577
17355.761719	-135.433350
17398.828125	-137.903915
17441.894531	-136.235321
17484.960938	-134.918976
17528.027344	-136.387924
17571.093750	-138.366196
17614.160156	-136.331421
17657.226562	-134.747726
17700.292969	-136.091614
17743.359375	-138.582977
17786.425781	-137.057175
17829.492188	-135.539932
17872.558594	-136.817657
17915.625000	-138.579498
17958.691406	-136.981400
18001.757812	-135.433502
18044.824219	-136.543198
18087.890625	-139.151855
18130.957031	-137.657867
18174.023438	-136.142746
18217.089844	-137.555649
18260.156250	-139.255493
18303.222656	-137.578537
18346.289062	-136.122452
18389.355469	-137.231750
18432.421875	-139.307266
18475.488281	-138.158371
18518.554688	-136.910706
18561.621094	-138.050201
18604.687500	-139.675858
18647.753906	-138.214249
18690.820312	-136.855530
18733.886719	-137.926682
18776.953125	-140.210724
18820.019531	-139.148285
18863.085938	-137.809525
18906.152344	-138.786713
18949.218750	-140.106323
18992.285156	-138.714066
19035.351562	-137.333344
19078.417969	-137.854202
19121.484375	-139.109772
19164.550781	-138.838806
19207.617188	-137.909653
19250.683594	-139.014481
19293.750000	-140.719208
19336.816406	-139.723907
19379.882812	-138.594116
19422.949219	-139.502167
19466.015625	-141.394379
19509.082031	-140.718643
19552.148438	-139.685654
19595.214844	-140.311752
19638.281250	-141.269714
19681.347656	-140.528976
19724.414062	-139.384048
19767.480469	-139.170074
19810.546875	-139.795059
19853.613281	-139.166763
19896.679688	-138.511902
19939.746094	-139.614822
19982.812500	-141.396713
20025.878906	-141.574127
20068.945312	-141.549423
20112.011719	-142.626846
20155.078125	-144.069519
20198.144531	-143.566406
20241.210938	-142.295380
20284.277344	-142.486191
20327.343750	-142.426880
20370.410156	-142.212692
20413.476562	-142.453888
20456.542969	-143.134888
20499.609375	-143.404602
20542.675781	-142.929398
20585.742188	-142.867752
20628.808594	-143.852432
20671.875000	-144.995010
20714.941406	-144.526489
20758.007812	-143.676086
20801.074219	-144.771301
20844.140625	-145.930832
20887.207031	-145.454636
20930.273438	-144.219284
20973.339844	-144.448090
21016.406250	-146.284180
21059.472656	-147.537979
21102.539062	-149.152435
21145.605469	-151.127060
21188.671875	-152.782349
21231.738281	-153.503723
21274.804688	-153.594467
21317.871094	-155.145630
21360.937500	-157.901566
21404.003906	-161.060806
21447.070312	-163.971817
21490.136719	-165.593979
21533.203125	-166.194183
21576.269531	-166.314346
21619.335938	-164.337616
21662.402344	-162.822159
21705.468750	-164.148941
21748.535156	-164.670761
21791.601562	-164.420349
21834.667969	-167.450272
21877.734375	-169.198303
21920.800781	-164.910126
21963.867188	-162.369308
22006.933594	-168.342606
