Frequency (Hz)	Level (dB)
43.066406	-21.631943
86.132812	-21.800695
129.199219	-24.400166
172.265625	-20.128935
215.332031	-15.936546
258.398438	-17.317467
301.464844	-18.230879
344.531250	-19.037968
387.597656	-17.133211
430.664062	-17.455954
473.730469	-19.702602
516.796875	-22.736099
559.863281	-22.655899
602.929688	-20.698143
645.996094	-21.748583
689.062500	-19.566881
732.128906	-18.849058
775.195312	-23.633408
818.261719	-25.125731
861.328125	-26.687878
904.394531	-24.946371
947.460938	-25.950989
990.527344	-28.857843
1033.593750	-29.247763
1076.660156	-29.670275
1119.726562	-29.979221
1162.792969	-30.805517
1205.859375	-28.484364
1248.925781	-28.308884
1291.992188	-31.683414
1335.058594	-28.856314
1378.125000	-26.347202
1421.191406	-28.573481
1464.257812	-27.796297
1507.324219	-27.898367
1550.390625	-28.802185
1593.457031	-30.504869
1636.523438	-29.108686
1679.589844	-32.061111
1722.656250	-32.396526
1765.722656	-33.418903
1808.789062	-28.997778
1851.855469	-28.069912
1894.921875	-32.821781
1937.988281	-34.164310
1981.054688	-34.700985
2024.121094	-31.999849
2067.187500	-30.353149
2110.253906	-32.362114
2153.320312	-27.493376
2196.386719	-27.183390
2239.453125	-32.810013
2282.519531	-35.017033
2325.585938	-36.081081
2368.652344	-37.144199
2411.718750	-35.469856
2454.785156	-33.640621
2497.851562	-34.362762
2540.917969	-36.843971
2583.984375	-39.367039
2627.050781	-40.934097
2670.117188	-40.419910
2713.183594	-37.278351
2756.250000	-34.468037
2799.316406	-35.809219
2842.382812	-38.947998
2885.449219	-37.764591
2928.515625	-37.178509
2971.582031	-39.328045
3014.648438	-41.143852
3057.714844	-40.793972
3100.781250	-40.933784
3143.847656	-41.489658
3186.914062	-41.199520
3229.980469	-40.222351
3273.046875	-39.311890
3316.113281	-39.236427
3359.179688	-39.518776
3402.246094	-39.963623
3445.312500	-40.305885
3488.378906	-40.818722
3531.445312	-41.572529
3574.511719	-41.448273
3617.578125	-39.328960
3660.644531	-36.995926
3703.710938	-37.396225
3746.777344	-39.379436
3789.843750	-40.615665
3832.910156	-42.293465
3875.976562	-44.152271
3919.042969	-44.665340
3962.109375	-43.867947
4005.175781	-44.141308
4048.242188	-45.326660
4091.308594	-45.661964
4134.375000	-45.480930
4177.441406	-46.143803
4220.507812	-46.850231
4263.574219	-45.107025
4306.640625	-44.566223
4349.707031	-46.131149
4392.773438	-47.678654
4435.839844	-48.742920
4478.906250	-49.266914
4521.972656	-49.188625
4565.039062	-48.284725
4608.105469	-48.701397
4651.171875	-50.177067
4694.238281	-50.083366
4737.304688	-49.534592
4780.371094	-49.676441
4823.437500	-49.318359
4866.503906	-49.372307
4909.570312	-50.120541
4952.636719	-50.955147
4995.703125	-50.296158
5038.769531	-48.622009
5081.835938	-48.470703
5124.902344	-50.332230
5167.968750	-52.534203
5211.035156	-54.378593
5254.101562	-55.499420
5297.167969	-56.092304
5340.234375	-56.890335
5383.300781	-57.179432
5426.367188	-56.532696
5469.433594	-55.811996
5512.500000	-55.152462
5555.566406	-55.085121
5598.632812	-54.854492
5641.699219	-53.487770
5684.765625	-53.415184
5727.832031	-55.315956
5770.898438	-54.962811
5813.964844	-52.386719
5857.031250	-52.486805
5900.097656	-55.725433
5943.164062	-59.075222
5986.230469	-59.745609
6029.296875	-59.669228
6072.363281	-59.358521
6115.429688	-58.457844
6158.496094	-58.827576
6201.562500	-60.671276
6244.628906	-61.699028
6287.695312	-62.438488
6330.761719	-63.044334
6373.828125	-63.263527
6416.894531	-63.235714
6459.960938	-63.320869
6503.027344	-63.095345
6546.093750	-63.563427
6589.160156	-64.496735
6632.226562	-65.652657
6675.292969	-65.944061
6718.359375	-66.159912
6761.425781	-67.103752
6804.492188	-67.789207
6847.558594	-67.670746
6890.625000	-67.007416
6933.691406	-67.170715
6976.757812	-67.888489
7019.824219	-68.323303
7062.890625	-68.579956
7105.957031	-69.026299
7149.023438	-69.209816
7192.089844	-68.082886
7235.156250	-67.879578
7278.222656	-66.736336
7321.289062	-65.811058
7364.355469	-65.995995
7407.421875	-66.383286
7450.488281	-66.632843
7493.554688	-67.524918
7536.621094	-69.113014
7579.687500	-69.362114
7622.753906	-69.341881
7665.820312	-69.977371
7708.886719	-70.435547
7751.953125	-71.768837
7795.019531	-72.194359
7838.085938	-72.112717
7881.152344	-71.339058
7924.218750	-70.677567
7967.285156	-70.995514
8010.351562	-71.742332
8053.417969	-72.623680
8096.484375	-72.765709
8139.550781	-73.433357
8182.617188	-72.595253
8225.683594	-73.165985
8268.750000	-74.348259
8311.816406	-74.362694
8354.882812	-75.356583
8397.949219	-76.030159
8441.015625	-77.145699
8484.082031	-76.378151
8527.148438	-76.318695
8570.214844	-77.167274
8613.281250	-78.568718
8656.347656	-78.938545
8699.414062	-77.914253
8742.480469	-78.921593
8785.546875	-78.235634
8828.613281	-78.704842
8871.679688	-79.153198
8914.746094	-78.756729
8957.812500	-79.433212
9000.878906	-80.387779
9043.945312	-80.583488
9087.011719	-80.788078
9130.078125	-81.114380
9173.144531	-80.436012
9216.210938	-80.127007
9259.277344	-79.956482
9302.343750	-78.986313
9345.410156	-79.850677
9388.476562	-80.123619
9431.542969	-80.371246
9474.609375	-78.876770
9517.675781	-78.457535
9560.742188	-80.608452
9603.808594	-80.848251
9646.875000	-81.770554
9689.941406	-81.269684
9733.007812	-81.200623
9776.074219	-81.055939
9819.140625	-81.658455
9862.207031	-81.409378
9905.273438	-81.625343
9948.339844	-82.012245
9991.406250	-79.362854
10034.472656	-80.185188
10077.539062	-81.597290
10120.605469	-81.102806
10163.671875	-80.520828
10206.738281	-80.794281
10249.804688	-82.602020
10292.871094	-82.066902
10335.937500	-82.762596
10379.003906	-82.460335
10422.070312	-81.745804
10465.136719	-81.174461
10508.203125	-80.404968
10551.269531	-80.347931
10594.335938	-80.701630
10637.402344	-81.616608
10680.468750	-81.626152
10723.535156	-81.256462
10766.601562	-81.565430
10809.667969	-81.992645
10852.734375	-82.001648
10895.800781	-81.088867
10938.867188	-81.191467
10981.933594	-82.175713
11025.000000	-82.812813
11068.066406	-82.916466
11111.132812	-82.402977
11154.199219	-81.606857
11197.265625	-79.100464
11240.332031	-81.337021
11283.398438	-82.292244
11326.464844	-82.382187
11369.531250	-81.839081
11412.597656	-80.901375
11455.664062	-82.523872
11498.730469	-84.390488
11541.796875	-85.010742
11584.863281	-85.234695
11627.929688	-84.625610
11670.996094	-84.758392
11714.062500	-84.780022
11757.128906	-84.552834
11800.195312	-84.812408
11843.261719	-84.679977
11886.328125	-83.630547
11929.394531	-82.760971
11972.460938	-82.543327
12015.527344	-82.245125
12058.593750	-81.828445
12101.660156	-81.919975
12144.726562	-82.473320
12187.792969	-81.403145
12230.859375	-81.334320
12273.925781	-82.166252
12316.992188	-83.423615
12360.058594	-83.041573
12403.125000	-83.513474
12446.191406	-84.340240
12489.257812	-85.285904
12532.324219	-84.707336
12575.390625	-83.438362
12618.457031	-82.519005
12661.523438	-82.927933
12704.589844	-84.178429
12747.656250	-84.608116
12790.722656	-83.844086
12833.789062	-83.910477
12876.855469	-83.664482
12919.921875	-83.442192
12962.988281	-84.325005
13006.054688	-83.921211
13049.121094	-83.042412
13092.187500	-83.901634
13135.253906	-84.245010
13178.320312	-84.532066
13221.386719	-83.406837
13264.453125	-83.158211
13307.519531	-84.638321
13350.585938	-82.868378
13393.652344	-82.199783
13436.718750	-83.158707
13479.785156	-83.058838
13522.851562	-83.285004
13565.917969	-83.328552
13608.984375	-84.139893
13652.050781	-83.931572
13695.117188	-83.573814
13738.183594	-84.480469
13781.250000	-85.007408
13824.316406	-85.237152
13867.382812	-84.977325
13910.449219	-83.990326
13953.515625	-86.488159
13996.582031	-86.748940
14039.648438	-86.492760
14082.714844	-86.216957
14125.781250	-86.452530
14168.847656	-86.675850
14211.914062	-84.965866
14254.980469	-84.199646
14298.046875	-84.919861
14341.113281	-85.016731
14384.179688	-84.503952
14427.246094	-86.110786
14470.312500	-87.064110
14513.378906	-86.507095
14556.445312	-87.583778
14599.511719	-87.277077
14642.578125	-86.352455
14685.644531	-85.625893
14728.710938	-84.350830
14771.777344	-82.894890
14814.843750	-82.812874
14857.910156	-83.222786
14900.976562	-82.640457
14944.042969	-83.631935
14987.109375	-84.772964
15030.175781	-85.964645
15073.242188	-86.639214
15116.308594	-87.312408
15159.375000	-87.835716
15202.441406	-85.217529
15245.507812	-85.238510
15288.574219	-85.938553
15331.640625	-85.806183
15374.707031	-86.144943
15417.773438	-86.751366
15460.839844	-85.418427
15503.906250	-85.230759
15546.972656	-85.449028
15590.039062	-83.847984
15633.105469	-84.607353
15676.171875	-85.523575
15719.238281	-84.603943
15762.304688	-85.061707
15805.371094	-85.819893
15848.437500	-86.922462
15891.503906	-88.250511
15934.570312	-86.728630
15977.636719	-86.498375
16020.703125	-86.399246
16063.769531	-87.097801
16106.835938	-87.428482
16149.902344	-88.327202
16192.968750	-86.774979
16236.035156	-85.772797
16279.101562	-84.686554
16322.167969	-86.213928
16365.234375	-87.918129
16408.300781	-87.283104
16451.367188	-87.700729
16494.433594	-87.882286
16537.500000	-90.120209
16580.566406	-89.829994
16623.632812	-89.853867
16666.699219	-89.120918
16709.765625	-86.966080
16752.832031	-88.414604
16795.898438	-88.062035
16838.964844	-88.180580
16882.031250	-85.243088
16925.097656	-86.837776
16968.164062	-89.166557
17011.230469	-86.410767
17054.296875	-86.483978
17097.363281	-86.040703
17140.429688	-86.898598
17183.496094	-87.624008
17226.562500	-87.854767
17269.628906	-87.259583
17312.695312	-86.849670
17355.761719	-87.346161
17398.828125	-85.202545
17441.894531	-87.617226
17484.960938	-86.182701
17528.027344	-85.670868
17571.093750	-85.440903
17614.160156	-84.743767
17657.226562	-87.349052
17700.292969	-85.624748
17743.359375	-85.976624
17786.425781	-85.014458
17829.492188	-86.477005
17872.558594	-88.330109
17915.625000	-88.117218
17958.691406	-89.957291
18001.757812	-88.023026
18044.824219	-88.700264
18087.890625	-87.954735
18130.957031	-88.356522
18174.023438	-87.372040
18217.089844	-86.984634
18260.156250	-87.292191
18303.222656	-84.682617
18346.289062	-86.135872
18389.355469	-84.565598
18432.421875	-86.601814
18475.488281	-89.260994
18518.554688	-88.707886
18561.621094	-88.677238
18604.687500	-89.041229
18647.753906	-90.007912
18690.820312	-88.213043
18733.886719	-87.943016
18776.953125	-87.129082
18820.019531	-86.452736
18863.085938	-87.580917
18906.152344	-87.225670
18949.218750	-87.798470
18992.285156	-85.004189
19035.351562	-86.893585
19078.417969	-85.718636
19121.484375	-85.823906
19164.550781	-88.364380
19207.617188	-87.547737
19250.683594	-87.890511
19293.750000	-84.577507
19336.816406	-86.804001
19379.882812	-86.687325
19422.949219	-86.733665
19466.015625	-87.330399
19509.082031	-86.879143
19552.148438	-89.011330
19595.214844	-89.494659
19638.281250	-88.811363
19681.347656	-86.900368
19724.414062	-87.696144
19767.480469	-86.084335
19810.546875	-84.789566
19853.613281	-88.747253
19896.679688	-87.229485
19939.746094	-89.465424
19982.812500	-88.384079
20025.878906	-88.542412
20068.945312	-88.509888
20112.011719	-87.561455
20155.078125	-88.200577
20198.144531	-90.765480
20241.210938	-89.543266
20284.277344	-86.624886
20327.343750	-88.602448
20370.410156	-88.793251
20413.476562	-86.773819
20456.542969	-90.041100
20499.609375	-90.282463
20542.675781	-92.203720
20585.742188	-90.806610
20628.808594	-92.331741
20671.875000	-93.112343
20714.941406	-91.548828
20758.007812	-93.641914
20801.074219	-92.158867
20844.140625	-93.499619
20887.207031	-91.158844
20930.273438	-92.417229
20973.339844	-92.812363
21016.406250	-92.926620
21059.472656	-95.259254
21102.539062	-92.015297
21145.605469	-94.699486
21188.671875	-91.130211
21231.738281	-92.986877
21274.804688	-93.661072
21317.871094	-93.357475
21360.937500	-97.764275
21404.003906	-97.362457
21447.070312	-96.266281
21490.136719	-89.344978
21533.203125	-92.330284
21576.269531	-95.903587
21619.335938	-95.286057
21662.402344	-97.923843
21705.468750	-95.502411
21748.535156	-98.771629
21791.601562	-95.318733
21834.667969	-98.093605
21877.734375	-95.890839
21920.800781	-95.419701
21963.867188	-97.282349
22006.933594	-95.077492
