Frequency (Hz)	Level (dB)
43.066406	-24.059572
86.132812	-22.343622
129.199219	-24.637083
172.265625	-20.249561
215.332031	-15.984249
258.398438	-17.355669
301.464844	-18.388901
344.531250	-19.312386
387.597656	-17.278975
430.664062	-17.482885
473.730469	-19.781973
516.796875	-22.779448
559.863281	-22.743305
602.929688	-21.164501
645.996094	-22.412907
689.062500	-20.192408
732.128906	-19.305481
775.195312	-24.082626
818.261719	-25.604471
861.328125	-27.016191
904.394531	-24.850201
947.460938	-25.807713
990.527344	-28.885973
1033.593750	-29.386681
1076.660156	-29.693039
1119.726562	-30.022305
1162.792969	-30.915165
1205.859375	-28.548016
1248.925781	-28.430628
1291.992188	-31.955494
1335.058594	-29.213514
1378.125000	-26.742872
1421.191406	-28.962404
1464.257812	-28.168810
1507.324219	-28.255276
1550.390625	-29.113840
1593.457031	-30.510572
1636.523438	-29.025515
1679.589844	-32.049442
1722.656250	-32.496681
1765.722656	-33.382282
1808.789062	-28.976772
1851.855469	-28.085949
1894.921875	-32.698540
1937.988281	-34.117245
1981.054688	-34.840687
2024.121094	-32.333527
2067.187500	-30.766321
2110.253906	-32.726334
2153.320312	-28.064537
2196.386719	-27.821630
2239.453125	-33.254673
2282.519531	-35.154121
2325.585938	-36.203014
2368.652344	-37.396553
2411.718750	-35.812305
2454.785156	-33.942047
2497.851562	-34.477077
2540.917969	-36.624065
2583.984375	-38.875721
2627.050781	-40.333904
2670.117188	-40.030190
2713.183594	-37.174515
2756.250000	-34.479004
2799.316406	-35.783356
2842.382812	-38.742405
2885.449219	-37.590126
2928.515625	-37.004913
2971.582031	-39.116463
3014.648438	-40.799576
3057.714844	-40.385319
3100.781250	-40.549999
3143.847656	-41.153687
3186.914062	-40.905075
3229.980469	-39.886322
3273.046875	-38.948231
3316.113281	-38.849701
3359.179688	-39.142731
3402.246094	-39.640343
3445.312500	-40.020195
3488.378906	-40.485287
3531.445312	-41.066887
3574.511719	-40.912498
3617.578125	-38.991608
3660.644531	-36.744373
3703.710938	-37.200050
3746.777344	-39.214886
3789.843750	-40.294094
3832.910156	-41.733067
3875.976562	-43.357578
3919.042969	-43.931778
3962.109375	-43.338154
4005.175781	-43.429611
4048.242188	-44.358727
4091.308594	-44.622784
4134.375000	-44.350323
4177.441406	-44.991837
4220.507812	-45.676113
4263.574219	-43.859852
4306.640625	-43.194626
4349.707031	-44.602734
4392.773438	-45.892658
4435.839844	-46.774426
4478.906250	-47.399998
4521.972656	-47.333031
4565.039062	-46.549992
4608.105469	-46.809132
4651.171875	-48.001335
4694.238281	-48.308052
4737.304688	-48.187828
4780.371094	-48.397125
4823.437500	-47.872452
4866.503906	-47.607342
4909.570312	-48.133114
4952.636719	-48.825581
4995.703125	-48.230492
5038.769531	-46.840828
5081.835938	-46.820690
5124.902344	-48.352074
5167.968750	-50.072842
5211.035156	-51.329235
5254.101562	-51.714714
5297.167969	-51.801384
5340.234375	-52.291901
5383.300781	-52.718472
5426.367188	-52.331467
5469.433594	-51.588459
5512.500000	-51.080845
5555.566406	-50.777946
5598.632812	-50.571667
5641.699219	-50.039963
5684.765625	-50.144066
5727.832031	-51.766418
5770.898438	-51.837250
5813.964844	-50.097057
5857.031250	-50.078754
5900.097656	-52.297413
5943.164062	-53.758099
5986.230469	-53.652508
6029.296875	-53.653423
6072.363281	-54.104595
6115.429688	-53.860111
6158.496094	-53.758812
6201.562500	-54.347153
6244.628906	-55.275295
6287.695312	-55.510342
6330.761719	-55.430161
6373.828125	-55.236191
6416.894531	-55.926422
6459.960938	-56.562534
6503.027344	-56.446514
6546.093750	-56.169548
6589.160156	-55.827976
6632.226562	-56.121704
6675.292969	-56.800228
6718.359375	-56.788429
6761.425781	-56.832752
6804.492188	-56.669094
6847.558594	-56.416607
6890.625000	-56.069344
6933.691406	-55.973129
6976.757812	-55.914200
7019.824219	-55.659954
7062.890625	-55.187851
7105.957031	-54.519356
7149.023438	-55.071865
7192.089844	-54.565521
7235.156250	-54.402893
7278.222656	-54.538891
7321.289062	-55.914734
7364.355469	-56.007759
7407.421875	-55.544689
7450.488281	-55.944859
7493.554688	-56.309650
7536.621094	-57.318378
7579.687500	-57.564358
7622.753906	-57.269325
7665.820312	-57.424252
7708.886719	-58.132580
7751.953125	-58.306316
7795.019531	-56.737804
7838.085938	-57.689426
7881.152344	-59.654659
7924.218750	-59.737747
7967.285156	-59.696186
8010.351562	-58.994904
8053.417969	-58.947750
8096.484375	-59.299515
8139.550781	-58.873386
8182.617188	-58.276794
8225.683594	-58.898964
8268.750000	-58.386009
8311.816406	-58.522415
8354.882812	-58.173870
8397.949219	-56.723103
8441.015625	-57.557732
8484.082031	-57.246643
8527.148438	-58.080643
8570.214844	-58.350613
8613.281250	-58.079117
8656.347656	-57.981018
8699.414062	-58.525585
8742.480469	-58.201492
8785.546875	-57.566307
8828.613281	-57.595684
8871.679688	-58.426331
8914.746094	-58.243633
8957.812500	-59.350681
9000.878906	-57.689365
9043.945312	-59.754513
9087.011719	-60.100960
9130.078125	-60.567940
9173.144531	-60.825462
9216.210938	-60.712223
9259.277344	-61.126656
9302.343750	-63.231483
9345.410156	-61.919231
9388.476562	-59.686363
9431.542969	-60.465210
9474.609375	-62.122562
9517.675781	-62.741341
9560.742188	-61.278008
9603.808594	-60.117123
9646.875000	-61.270836
9689.941406	-61.383648
9733.007812	-62.145691
9776.074219	-61.347404
9819.140625	-61.830040
9862.207031	-64.021576
9905.273438	-64.642952
9948.339844	-64.528313
9991.406250	-63.272053
10034.472656	-64.417984
10077.539062	-66.441673
10120.605469	-66.475098
10163.671875	-64.959290
10206.738281	-65.028038
10249.804688	-66.121658
10292.871094	-64.652695
10335.937500	-65.481644
10379.003906	-65.166443
10422.070312	-64.280510
10465.136719	-64.974915
10508.203125	-64.745110
10551.269531	-62.907127
10594.335938	-62.119488
10637.402344	-62.885159
10680.468750	-63.385677
10723.535156	-62.447678
10766.601562	-59.417336
10809.667969	-58.413597
10852.734375	-62.318096
10895.800781	-64.599106
10938.867188	-63.685635
10981.933594	-62.261543
11025.000000	-60.886330
11068.066406	-61.195599
11111.132812	-60.351383
11154.199219	-59.306767
11197.265625	-59.749592
11240.332031	-60.497787
11283.398438	-58.401978
11326.464844	-58.265350
11369.531250	-59.226414
11412.597656	-60.143917
11455.664062	-59.670441
11498.730469	-58.576752
11541.796875	-59.374352
11584.863281	-60.508614
11627.929688	-61.012901
11670.996094	-59.222660
11714.062500	-58.788063
11757.128906	-59.340591
11800.195312	-59.433926
11843.261719	-59.497105
11886.328125	-58.751549
11929.394531	-59.282516
11972.460938	-60.115795
12015.527344	-58.966053
12058.593750	-58.744110
12101.660156	-58.886589
12144.726562	-60.361584
12187.792969	-58.184872
12230.859375	-59.212021
12273.925781	-60.749283
12316.992188	-60.367481
12360.058594	-61.227222
12403.125000	-61.865795
12446.191406	-60.768818
12489.257812	-61.560413
12532.324219	-62.068520
12575.390625	-61.869274
12618.457031	-62.438797
12661.523438	-63.255821
12704.589844	-61.525257
12747.656250	-61.362446
12790.722656	-60.368652
12833.789062	-60.820805
12876.855469	-60.626705
12919.921875	-60.594105
12962.988281	-60.930191
13006.054688	-60.860363
13049.121094	-61.696495
13092.187500	-61.230240
13135.253906	-61.912689
13178.320312	-62.089050
13221.386719	-61.786083
13264.453125	-62.314293
13307.519531	-62.465164
13350.585938	-62.508938
13393.652344	-61.319466
13436.718750	-61.142971
13479.785156	-61.868244
13522.851562	-60.970280
13565.917969	-61.190201
13608.984375	-61.499191
13652.050781	-60.910236
13695.117188	-60.557224
13738.183594	-62.139484
13781.250000	-62.353241
13824.316406	-61.372509
13867.382812	-60.544842
13910.449219	-60.909725
13953.515625	-60.893250
13996.582031	-59.201889
14039.648438	-61.612953
14082.714844	-62.985195
14125.781250	-62.812187
14168.847656	-61.804447
14211.914062	-61.164127
14254.980469	-61.328293
14298.046875	-61.669563
14341.113281	-62.989254
14384.179688	-62.204159
14427.246094	-62.342937
14470.312500	-62.980865
14513.378906	-62.199043
14556.445312	-62.217567
14599.511719	-63.761772
14642.578125	-62.879379
14685.644531	-62.841850
14728.710938	-63.295269
14771.777344	-63.808975
14814.843750	-62.648067
14857.910156	-60.765987
14900.976562	-61.180336
14944.042969	-62.911644
14987.109375	-61.441612
15030.175781	-62.708855
15073.242188	-65.105934
15116.308594	-66.591652
15159.375000	-67.614517
15202.441406	-65.593651
15245.507812	-64.628365
15288.574219	-64.405777
15331.640625	-63.743069
15374.707031	-63.447811
15417.773438	-63.826286
15460.839844	-63.406849
15503.906250	-62.109203
15546.972656	-62.938126
15590.039062	-62.271442
15633.105469	-62.336300
15676.171875	-62.132343
15719.238281	-63.446480
15762.304688	-65.808502
15805.371094	-66.218132
15848.437500	-65.416931
15891.503906	-65.314995
15934.570312	-66.192207
15977.636719	-66.658508
16020.703125	-67.296944
16063.769531	-68.190895
16106.835938	-66.970451
16149.902344	-65.974968
16192.968750	-64.490311
16236.035156	-65.292519
16279.101562	-65.477600
16322.167969	-64.960396
16365.234375	-65.285904
16408.300781	-66.063736
16451.367188	-67.551468
16494.433594	-66.770752
16537.500000	-67.212166
16580.566406	-68.063675
16623.632812	-68.175110
16666.699219	-68.244942
16709.765625	-68.276604
16752.832031	-68.413651
16795.898438	-68.979675
16838.964844	-71.224442
16882.031250	-70.494949
16925.097656	-68.477264
16968.164062	-68.326279
17011.230469	-69.714798
17054.296875	-70.263794
17097.363281	-69.820801
17140.429688	-72.707481
17183.496094	-73.355125
17226.562500	-71.915031
17269.628906	-71.298569
17312.695312	-71.231232
17355.761719	-71.292679
17398.828125	-70.480270
17441.894531	-70.345306
17484.960938	-70.529572
17528.027344	-70.634621
17571.093750	-69.791855
17614.160156	-69.023430
17657.226562	-69.789017
17700.292969	-70.366585
17743.359375	-72.176926
17786.425781	-70.743103
17829.492188	-70.996284
17872.558594	-70.835205
17915.625000	-72.443832
17958.691406	-71.516113
18001.757812	-70.307602
18044.824219	-72.397560
18087.890625	-71.734352
18130.957031	-71.267159
18174.023438	-72.775017
18217.089844	-75.291046
18260.156250	-74.510391
18303.222656	-73.980003
18346.289062	-72.607285
18389.355469	-72.048164
18432.421875	-72.796776
18475.488281	-72.780121
18518.554688	-74.467255
18561.621094	-74.579041
18604.687500	-73.960693
18647.753906	-73.402260
18690.820312	-70.898537
18733.886719	-71.141373
18776.953125	-72.521744
18820.019531	-73.035904
18863.085938	-74.027672
18906.152344	-74.870171
18949.218750	-74.429230
18992.285156	-71.177444
19035.351562	-70.562500
19078.417969	-70.880417
19121.484375	-71.601746
19164.550781	-71.971985
19207.617188	-72.173935
19250.683594	-73.843132
19293.750000	-74.560509
19336.816406	-75.312592
19379.882812	-75.029831
19422.949219	-74.522934
19466.015625	-74.905159
19509.082031	-74.627533
19552.148438	-75.437805
19595.214844	-76.822388
19638.281250	-78.876808
19681.347656	-77.931343
19724.414062	-76.417793
19767.480469	-80.049263
19810.546875	-85.593147
19853.613281	-87.141251
19896.679688	-90.532631
19939.746094	-93.628593
19982.812500	-95.857849
20025.878906	-93.952179
20068.945312	-94.487267
20112.011719	-96.144753
20155.078125	-101.482033
20198.144531	-102.624283
20241.210938	-102.694344
20284.277344	-104.898903
20327.343750	-108.229256
20370.410156	-107.252556
20413.476562	-108.330704
20456.542969	-109.555954
20499.609375	-109.333298
20542.675781	-108.666214
20585.742188	-109.223618
20628.808594	-111.732567
20671.875000	-115.088310
20714.941406	-117.130325
20758.007812	-116.594521
20801.074219	-116.214676
20844.140625	-117.120598
20887.207031	-117.587997
20930.273438	-117.562218
20973.339844	-117.823204
21016.406250	-117.594170
21059.472656	-117.345284
21102.539062	-116.739761
21145.605469	-118.201653
21188.671875	-117.947914
21231.738281	-117.793083
21274.804688	-118.090569
21317.871094	-118.538002
21360.937500	-119.048897
21404.003906	-118.763565
21447.070312	-118.927338
21490.136719	-118.405731
21533.203125	-118.531921
21576.269531	-118.524933
21619.335938	-118.493462
21662.402344	-118.771118
21705.468750	-118.509041
21748.535156	-119.023972
21791.601562	-118.825134
21834.667969	-119.196503
21877.734375	-117.765625
21920.800781	-117.585991
21963.867188	-118.901825
22006.933594	-118.610931
