Frequency (Hz)	Level (dB)
43.066406	-21.714468
86.132812	-21.875212
129.199219	-24.407585
172.265625	-20.145557
215.332031	-15.956477
258.398438	-17.431576
301.464844	-18.577087
344.531250	-19.451180
387.597656	-17.363865
430.664062	-17.510117
473.730469	-19.682743
516.796875	-22.606602
559.863281	-22.631292
602.929688	-20.908588
645.996094	-22.088594
689.062500	-19.915859
732.128906	-19.165186
775.195312	-23.975288
818.261719	-25.416523
861.328125	-26.918030
904.394531	-24.874062
947.460938	-25.822832
990.527344	-28.831577
1033.593750	-29.281996
1076.660156	-29.689253
1119.726562	-30.030798
1162.792969	-30.839895
1205.859375	-28.488037
1248.925781	-28.398979
1291.992188	-31.954700
1335.058594	-29.216450
1378.125000	-26.743210
1421.191406	-28.951818
1464.257812	-28.162561
1507.324219	-28.284960
1550.390625	-29.147717
1593.457031	-30.619577
1636.523438	-29.185127
1679.589844	-32.170063
1722.656250	-32.539040
1765.722656	-33.473946
1808.789062	-29.067148
1851.855469	-28.162773
1894.921875	-32.830753
1937.988281	-34.268719
1981.054688	-34.936272
2024.121094	-32.382511
2067.187500	-30.798136
2110.253906	-32.762226
2153.320312	-28.032997
2196.386719	-27.745939
2239.453125	-33.173401
2282.519531	-35.147083
2325.585938	-36.187248
2368.652344	-37.308506
2411.718750	-35.678875
2454.785156	-33.847210
2497.851562	-34.513824
2540.917969	-36.897350
2583.984375	-39.371685
2627.050781	-40.931305
2670.117188	-40.494667
2713.183594	-37.388405
2756.250000	-34.597698
2799.316406	-35.921513
2842.382812	-39.008644
2885.449219	-37.835941
2928.515625	-37.211552
2971.582031	-39.348423
3014.648438	-41.129684
3057.714844	-40.783096
3100.781250	-40.974155
3143.847656	-41.529984
3186.914062	-41.213173
3229.980469	-40.195225
3273.046875	-39.277855
3316.113281	-39.245945
3359.179688	-39.587479
3402.246094	-40.057442
3445.312500	-40.421215
3488.378906	-40.875519
3531.445312	-41.514706
3574.511719	-41.400562
3617.578125	-39.332619
3660.644531	-36.995522
3703.710938	-37.434822
3746.777344	-39.496651
3789.843750	-40.673798
3832.910156	-42.299313
3875.976562	-44.201466
3919.042969	-44.777985
3962.109375	-44.063587
4005.175781	-44.241142
4048.242188	-45.374168
4091.308594	-45.726604
4134.375000	-45.576534
4177.441406	-46.266804
4220.507812	-46.932003
4263.574219	-45.040344
4306.640625	-44.469330
4349.707031	-46.080753
4392.773438	-47.590637
4435.839844	-48.608601
4478.906250	-49.195965
4521.972656	-49.044559
4565.039062	-48.146870
4608.105469	-48.531837
4651.171875	-49.992199
4694.238281	-50.057713
4737.304688	-49.751167
4780.371094	-50.022522
4823.437500	-49.661289
4866.503906	-49.621128
4909.570312	-50.321289
4952.636719	-51.137672
4995.703125	-50.359600
5038.769531	-48.664253
5081.835938	-48.561550
5124.902344	-50.378067
5167.968750	-52.527618
5211.035156	-54.213642
5254.101562	-55.150616
5297.167969	-55.609100
5340.234375	-56.353252
5383.300781	-56.627949
5426.367188	-56.069317
5469.433594	-55.301678
5512.500000	-54.799454
5555.566406	-54.909698
5598.632812	-54.773582
5641.699219	-53.458832
5684.765625	-53.384510
5727.832031	-55.309696
5770.898438	-55.144066
5813.964844	-52.736378
5857.031250	-52.795959
5900.097656	-55.811844
5943.164062	-58.817997
5986.230469	-59.119095
6029.296875	-58.898533
6072.363281	-58.664684
6115.429688	-57.890125
6158.496094	-58.198318
6201.562500	-59.991096
6244.628906	-61.539173
6287.695312	-62.617397
6330.761719	-62.968342
6373.828125	-62.819286
6416.894531	-62.840302
6459.960938	-63.200657
6503.027344	-63.014153
6546.093750	-63.232796
6589.160156	-63.733673
6632.226562	-64.622940
6675.292969	-64.933372
6718.359375	-64.941498
6761.425781	-65.382698
6804.492188	-65.901802
6847.558594	-65.675758
6890.625000	-65.424469
6933.691406	-65.809341
6976.757812	-66.369827
7019.824219	-66.729218
7062.890625	-66.903481
7105.957031	-67.194565
7149.023438	-67.319572
7192.089844	-67.034225
7235.156250	-66.187157
7278.222656	-64.965706
7321.289062	-64.385277
7364.355469	-64.710709
7407.421875	-65.168266
7450.488281	-65.820831
7493.554688	-67.259033
7536.621094	-68.918549
7579.687500	-69.690659
7622.753906	-70.032448
7665.820312	-70.586830
7708.886719	-71.050552
7751.953125	-71.323708
7795.019531	-71.758987
7838.085938	-72.263229
7881.152344	-72.492676
7924.218750	-72.572227
7967.285156	-72.649406
8010.351562	-72.827904
8053.417969	-73.445648
8096.484375	-73.924950
8139.550781	-74.377777
8182.617188	-74.714371
8225.683594	-74.965714
8268.750000	-75.333778
8311.816406	-75.936203
8354.882812	-76.452026
8397.949219	-76.987915
8441.015625	-77.536697
8484.082031	-78.013664
8527.148438	-78.319366
8570.214844	-78.540787
8613.281250	-78.864922
8656.347656	-79.133369
8699.414062	-79.322906
8742.480469	-79.519440
8785.546875	-79.881035
8828.613281	-80.380936
8871.679688	-80.617126
8914.746094	-80.794922
8957.812500	-81.323105
9000.878906	-81.840523
9043.945312	-82.137604
9087.011719	-82.425926
9130.078125	-82.719727
9173.144531	-82.947945
9216.210938	-83.200188
9259.277344	-83.409546
9302.343750	-83.553902
9345.410156	-83.729111
9388.476562	-83.927567
9431.542969	-84.052856
9474.609375	-84.180420
9517.675781	-84.325089
9560.742188	-84.521889
9603.808594	-84.649445
9646.875000	-84.847305
9689.941406	-85.007851
9733.007812	-85.171669
9776.074219	-85.220131
9819.140625	-85.240288
9862.207031	-85.315727
9905.273438	-85.476845
9948.339844	-85.630463
9991.406250	-85.709465
10034.472656	-85.835892
10077.539062	-85.860474
10120.605469	-85.964905
10163.671875	-86.007957
10206.738281	-86.033661
10249.804688	-86.053947
10292.871094	-86.178162
10335.937500	-86.191391
10379.003906	-86.054916
10422.070312	-86.263496
10465.136719	-86.392059
10508.203125	-86.314369
10551.269531	-86.319260
10594.335938	-86.394737
10637.402344	-86.368340
10680.468750	-86.437698
10723.535156	-86.472534
10766.601562	-86.494751
10809.667969	-86.465103
10852.734375	-86.452454
10895.800781	-86.486786
10938.867188	-86.522781
10981.933594	-86.477295
11025.000000	-86.483055
11068.066406	-86.457420
11111.132812	-86.418884
11154.199219	-86.454376
11197.265625	-86.450905
11240.332031	-86.321793
11283.398438	-86.292450
11326.464844	-86.311928
11369.531250	-86.297012
11412.597656	-86.242050
11455.664062	-86.240410
11498.730469	-86.303596
11541.796875	-86.243752
11584.863281	-86.138626
11627.929688	-86.099907
11670.996094	-86.042877
11714.062500	-85.986206
11757.128906	-85.978142
11800.195312	-85.993149
11843.261719	-86.130180
11886.328125	-86.163864
11929.394531	-86.110329
11972.460938	-86.054321
12015.527344	-86.089622
12058.593750	-86.109413
12101.660156	-86.178238
12144.726562	-86.208878
12187.792969	-86.196289
12230.859375	-86.254791
12273.925781	-86.343536
12316.992188	-86.333893
12360.058594	-86.343658
12403.125000	-86.391563
12446.191406	-86.425316
12489.257812	-86.394714
12532.324219	-86.496964
12575.390625	-86.477531
12618.457031	-86.399940
12661.523438	-86.465981
12704.589844	-86.539162
12747.656250	-86.543877
12790.722656	-86.484200
12833.789062	-86.565521
12876.855469	-86.626251
12919.921875	-86.604630
12962.988281	-86.682976
13006.054688	-86.772560
13049.121094	-86.871223
13092.187500	-86.893089
13135.253906	-87.015366
13178.320312	-87.025009
13221.386719	-87.123581
13264.453125	-87.221748
13307.519531	-87.379417
13350.585938	-87.495415
13393.652344	-87.517136
13436.718750	-87.646561
13479.785156	-87.784111
13522.851562	-87.848228
13565.917969	-88.020889
13608.984375	-88.066261
13652.050781	-88.177185
13695.117188	-88.214020
13738.183594	-88.310135
13781.250000	-88.537682
13824.316406	-88.597084
13867.382812	-88.607307
13910.449219	-88.771805
13953.515625	-88.910446
13996.582031	-88.949097
14039.648438	-89.014572
14082.714844	-89.013374
14125.781250	-89.132004
14168.847656	-89.249260
14211.914062	-89.288010
14254.980469	-89.364563
14298.046875	-89.408752
14341.113281	-89.473953
14384.179688	-89.470589
14427.246094	-89.593544
14470.312500	-89.759720
14513.378906	-89.792488
14556.445312	-89.737839
14599.511719	-89.805870
14642.578125	-89.962509
14685.644531	-90.066475
14728.710938	-90.078094
14771.777344	-90.113808
14814.843750	-90.243690
14857.910156	-90.294388
14900.976562	-90.364296
14944.042969	-90.458145
14987.109375	-90.502258
15030.175781	-90.656929
15073.242188	-90.668259
15116.308594	-90.645020
15159.375000	-90.850235
15202.441406	-91.031296
15245.507812	-91.068199
15288.574219	-91.113281
15331.640625	-91.168579
15374.707031	-91.245193
15417.773438	-91.371155
15460.839844	-91.401932
15503.906250	-91.408211
15546.972656	-91.134468
15590.039062	-91.239990
15633.105469	-91.523552
15676.171875	-91.648285
15719.238281	-92.697838
15762.304688	-98.179855
15805.371094	-111.357552
15848.437500	-118.363075
15891.503906	-120.044006
15934.570312	-120.309669
15977.636719	-120.339516
16020.703125	-120.306335
16063.769531	-120.346458
16106.835938	-120.413155
16149.902344	-120.363907
16192.968750	-120.328911
16236.035156	-120.356720
16279.101562	-120.339264
16322.167969	-120.283501
16365.234375	-120.302925
16408.300781	-120.297859
16451.367188	-120.295647
16494.433594	-120.320450
16537.500000	-120.367920
16580.566406	-120.302223
16623.632812	-120.294556
16666.699219	-120.312218
16709.765625	-120.341713
16752.832031	-120.391060
16795.898438	-120.365784
16838.964844	-120.420876
16882.031250	-120.380692
16925.097656	-120.386833
16968.164062	-120.364365
17011.230469	-120.356956
17054.296875	-120.401199
17097.363281	-120.433220
17140.429688	-120.369133
17183.496094	-120.372734
17226.562500	-120.371101
17269.628906	-120.376457
17312.695312	-120.400093
17355.761719	-120.360222
17398.828125	-120.380409
17441.894531	-120.331200
17484.960938	-120.327988
17528.027344	-120.370621
17571.093750	-120.402351
17614.160156	-120.384117
17657.226562	-120.368225
17700.292969	-120.387962
17743.359375	-120.361557
17786.425781	-120.345543
17829.492188	-120.362846
17872.558594	-120.401146
17915.625000	-120.426041
17958.691406	-120.431946
18001.757812	-120.417168
18044.824219	-120.396889
18087.890625	-120.383873
18130.957031	-120.421448
18174.023438	-120.469070
18217.089844	-120.439888
18260.156250	-120.380806
18303.222656	-120.381340
18346.289062	-120.365082
18389.355469	-120.372742
18432.421875	-120.351585
18475.488281	-120.343193
18518.554688	-120.393410
18561.621094	-120.410599
18604.687500	-120.407173
18647.753906	-120.398933
18690.820312	-120.376778
18733.886719	-120.366531
18776.953125	-120.376350
18820.019531	-120.408485
18863.085938	-120.407173
18906.152344	-120.449661
18949.218750	-120.430870
18992.285156	-120.400063
19035.351562	-120.372406
19078.417969	-120.344986
19121.484375	-120.317680
19164.550781	-120.374817
19207.617188	-120.365791
19250.683594	-120.364861
19293.750000	-120.389954
19336.816406	-120.391258
19379.882812	-120.404716
19422.949219	-120.449051
19466.015625	-120.433548
19509.082031	-120.500000
19552.148438	-120.486519
19595.214844	-120.461037
19638.281250	-120.392349
19681.347656	-120.389336
19724.414062	-120.366035
19767.480469	-120.313492
19810.546875	-120.386284
19853.613281	-120.419510
19896.679688	-120.370186
19939.746094	-120.422485
19982.812500	-120.491707
20025.878906	-120.498894
20068.945312	-120.479965
20112.011719	-120.462173
20155.078125	-120.437546
20198.144531	-120.375145
20241.210938	-120.396461
20284.277344	-120.383316
20327.343750	-120.413841
20370.410156	-120.416916
20413.476562	-120.440041
20456.542969	-120.433456
20499.609375	-120.415596
20542.675781	-120.410927
20585.742188	-120.451965
20628.808594	-120.503777
20671.875000	-120.450378
20714.941406	-120.446487
20758.007812	-120.417366
20801.074219	-120.416924
20844.140625	-120.436035
20887.207031	-120.505638
20930.273438	-120.453941
20973.339844	-120.454491
21016.406250	-120.494453
21059.472656	-120.503044
21102.539062	-120.438744
21145.605469	-120.418175
21188.671875	-120.459846
21231.738281	-120.445473
21274.804688	-120.419853
21317.871094	-120.411125
21360.937500	-120.475174
21404.003906	-120.533119
21447.070312	-120.448166
21490.136719	-120.457146
21533.203125	-120.481216
21576.269531	-120.395592
21619.335938	-120.443176
21662.402344	-120.491707
21705.468750	-120.498520
21748.535156	-120.488625
21791.601562	-120.500557
21834.667969	-120.475967
21877.734375	-120.473137
21920.800781	-120.427231
21963.867188	-120.442993
22006.933594	-120.492111
