Frequency (Hz)	Level (dB)
43.066406	-34.463512
86.132812	-23.813440
129.199219	-20.880915
172.265625	-20.099321
215.332031	-17.845652
258.398438	-18.339748
301.464844	-20.442730
344.531250	-22.804111
387.597656	-20.631615
430.664062	-16.807880
473.730469	-18.770899
516.796875	-21.582218
559.863281	-23.636030
602.929688	-24.174387
645.996094	-25.875933
689.062500	-27.164165
732.128906	-29.645645
775.195312	-29.349321
818.261719	-30.372499
861.328125	-28.012487
904.394531	-28.249065
947.460938	-31.167053
990.527344	-27.145346
1033.593750	-29.684868
1076.660156	-32.191807
1119.726562	-33.560883
1162.792969	-31.544928
1205.859375	-32.011574
1248.925781	-35.153637
1291.992188	-30.923737
1335.058594	-28.671099
1378.125000	-33.282185
1421.191406	-34.791153
1464.257812	-30.964464
1507.324219	-30.659737
1550.390625	-33.317043
1593.457031	-33.834724
1636.523438	-34.101048
1679.589844	-34.540718
1722.656250	-32.345051
1765.722656	-29.570459
1808.789062	-33.463966
1851.855469	-39.633995
1894.921875	-40.444206
1937.988281	-35.869984
1981.054688	-32.906731
2024.121094	-34.824398
2067.187500	-36.493851
2110.253906	-35.191521
2153.320312	-35.262314
2196.386719	-34.740093
2239.453125	-35.574425
2282.519531	-37.482121
2325.585938	-35.711933
2368.652344	-33.614246
2411.718750	-34.124523
2454.785156	-34.201870
2497.851562	-34.843838
2540.917969	-36.637615
2583.984375	-33.690502
2627.050781	-30.335735
2670.117188	-30.482174
2713.183594	-34.141994
2756.250000	-37.002991
2799.316406	-37.544666
2842.382812	-37.882492
2885.449219	-36.325062
2928.515625	-33.202141
2971.582031	-31.883188
3014.648438	-34.559322
3057.714844	-36.187572
3100.781250	-34.159008
3143.847656	-33.377106
3186.914062	-33.773327
3229.980469	-34.592251
3273.046875	-33.730057
3316.113281	-32.683861
3359.179688	-33.109394
3402.246094	-33.129742
3445.312500	-31.305166
3488.378906	-29.077335
3531.445312	-27.298283
3574.511719	-27.889290
3617.578125	-30.664495
3660.644531	-31.854240
3703.710938	-33.042587
3746.777344	-34.774002
3789.843750	-35.317291
3832.910156	-34.960625
3875.976562	-34.048634
3919.042969	-31.501125
3962.109375	-30.106030
4005.175781	-31.418625
4048.242188	-33.392742
4091.308594	-32.946976
4134.375000	-32.893822
4177.441406	-34.539825
4220.507812	-35.946667
4263.574219	-37.245396
4306.640625	-37.417236
4349.707031	-36.764126
4392.773438	-36.049358
4435.839844	-36.095726
4478.906250	-37.087410
4521.972656	-38.215168
4565.039062	-37.948101
4608.105469	-37.194187
4651.171875	-36.929108
4694.238281	-36.411755
4737.304688	-36.100697
4780.371094	-36.328823
4823.437500	-36.682690
4866.503906	-36.434898
4909.570312	-36.464172
4952.636719	-37.509293
4995.703125	-38.413250
5038.769531	-38.945892
5081.835938	-39.466663
5124.902344	-39.610306
5167.968750	-39.236752
5211.035156	-38.286480
5254.101562	-37.379246
5297.167969	-37.074074
5340.234375	-37.217796
5383.300781	-37.608162
5426.367188	-38.357624
5469.433594	-39.340309
5512.500000	-40.014896
5555.566406	-39.938103
5598.632812	-39.822216
5641.699219	-39.648483
5684.765625	-39.419285
5727.832031	-39.428917
5770.898438	-39.411850
5813.964844	-39.274086
5857.031250	-38.673260
5900.097656	-37.846256
5943.164062	-37.726063
5986.230469	-38.619450
6029.296875	-39.995548
6072.363281	-41.161457
6115.429688	-41.877422
6158.496094	-42.121983
6201.562500	-42.183327
6244.628906	-42.099300
6287.695312	-42.309830
6330.761719	-42.685520
6373.828125	-43.181061
6416.894531	-43.425049
6459.960938	-43.388466
6503.027344	-43.544907
6546.093750	-43.711201
6589.160156	-44.323223
6632.226562	-45.169228
6675.292969	-45.789700
6718.359375	-46.147377
6761.425781	-46.282452
6804.492188	-46.222588
6847.558594	-46.372574
6890.625000	-46.413013
6933.691406	-46.056843
6976.757812	-45.940887
7019.824219	-45.685760
7062.890625	-45.752728
7105.957031	-46.356853
7149.023438	-46.851952
7192.089844	-47.385777
7235.156250	-48.048321
7278.222656	-48.827736
7321.289062	-49.259468
7364.355469	-49.266808
7407.421875	-49.387486
7450.488281	-49.696728
7493.554688	-49.901279
7536.621094	-50.248554
7579.687500	-50.603485
7622.753906	-50.707996
7665.820312	-50.920101
7708.886719	-51.314453
7751.953125	-51.763344
7795.019531	-51.819946
7838.085938	-51.881981
7881.152344	-51.735455
7924.218750	-51.532372
7967.285156	-51.457684
8010.351562	-51.320629
8053.417969	-52.253448
8096.484375	-53.230045
8139.550781	-53.715214
8182.617188	-53.950176
8225.683594	-54.094727
8268.750000	-53.908447
8311.816406	-54.023838
8354.882812	-54.499290
8397.949219	-53.994717
8441.015625	-54.648506
8484.082031	-54.921482
8527.148438	-55.185120
8570.214844	-55.064354
8613.281250	-55.299355
8656.347656	-55.697121
8699.414062	-56.123058
8742.480469	-56.002258
8785.546875	-55.372265
8828.613281	-55.395489
8871.679688	-56.581749
8914.746094	-57.196033
8957.812500	-57.363190
9000.878906	-56.422688
9043.945312	-57.833191
9087.011719	-58.279186
9130.078125	-59.003448
9173.144531	-59.621403
9216.210938	-59.453571
9259.277344	-59.416454
9302.343750	-60.189362
9345.410156	-59.328766
9388.476562	-57.930637
9431.542969	-58.424633
9474.609375	-59.238892
9517.675781	-59.745583
9560.742188	-59.448906
9603.808594	-58.708652
9646.875000	-59.929375
9689.941406	-60.695511
9733.007812	-61.255356
9776.074219	-61.109589
9819.140625	-61.316238
9862.207031	-61.916004
9905.273438	-62.281113
9948.339844	-61.996311
9991.406250	-60.445107
10034.472656	-61.415432
10077.539062	-63.331661
10120.605469	-63.792656
10163.671875	-62.938591
10206.738281	-62.967762
10249.804688	-64.247498
10292.871094	-64.355804
10335.937500	-65.150635
10379.003906	-65.165344
10422.070312	-64.635292
10465.136719	-65.570297
10508.203125	-66.166649
10551.269531	-65.227722
10594.335938	-63.602734
10637.402344	-64.822983
10680.468750	-65.960304
10723.535156	-65.076668
10766.601562	-61.975670
10809.667969	-61.107620
10852.734375	-65.346359
10895.800781	-67.356659
10938.867188	-67.271233
10981.933594	-66.394226
11025.000000	-65.320908
11068.066406	-65.788887
11111.132812	-65.385941
11154.199219	-64.504112
11197.265625	-64.716896
11240.332031	-65.840324
11283.398438	-65.461304
11326.464844	-65.772156
11369.531250	-65.395332
11412.597656	-65.965965
11455.664062	-67.369011
11498.730469	-67.199783
11541.796875	-67.074867
11584.863281	-67.101402
11627.929688	-66.734947
11670.996094	-64.371300
11714.062500	-63.824768
11757.128906	-64.764267
11800.195312	-65.483589
11843.261719	-66.150017
11886.328125	-66.253975
11929.394531	-66.876862
11972.460938	-67.821922
12015.527344	-68.052094
12058.593750	-68.277939
12101.660156	-67.778168
12144.726562	-68.611603
12187.792969	-65.726700
12230.859375	-66.816277
12273.925781	-69.224998
12316.992188	-69.766075
12360.058594	-70.738739
12403.125000	-69.807533
12446.191406	-68.779556
12489.257812	-69.539932
12532.324219	-69.831581
12575.390625	-70.204742
12618.457031	-70.880661
12661.523438	-69.933441
12704.589844	-68.477020
12747.656250	-69.244415
12790.722656	-68.474503
12833.789062	-69.431625
12876.855469	-69.934120
12919.921875	-70.555740
12962.988281	-70.575081
13006.054688	-70.036644
13049.121094	-71.137871
13092.187500	-71.899757
13135.253906	-72.257980
13178.320312	-72.122887
13221.386719	-72.046318
13264.453125	-72.058037
13307.519531	-71.819260
13350.585938	-72.156754
13393.652344	-71.349609
13436.718750	-71.074753
13479.785156	-72.080345
13522.851562	-71.629219
13565.917969	-72.015778
13608.984375	-72.112709
13652.050781	-70.852310
13695.117188	-68.849876
13738.183594	-69.841049
13781.250000	-70.758636
13824.316406	-69.491707
13867.382812	-67.411240
13910.449219	-67.573006
13953.515625	-68.990440
13996.582031	-69.133835
14039.648438	-71.546997
14082.714844	-73.592735
14125.781250	-73.318344
14168.847656	-71.773895
14211.914062	-71.168861
14254.980469	-71.838226
14298.046875	-71.770401
14341.113281	-73.139793
14384.179688	-72.885811
14427.246094	-72.759521
14470.312500	-72.384796
14513.378906	-71.704903
14556.445312	-72.481026
14599.511719	-74.033913
14642.578125	-73.587799
14685.644531	-73.908562
14728.710938	-75.113541
14771.777344	-76.072289
14814.843750	-75.560120
14857.910156	-73.545242
14900.976562	-73.288239
14944.042969	-73.683601
14987.109375	-71.166267
15030.175781	-71.914230
15073.242188	-74.208771
15116.308594	-76.546051
15159.375000	-78.150253
15202.441406	-76.656921
15245.507812	-76.306450
15288.574219	-75.757645
15331.640625	-74.693085
15374.707031	-74.109535
15417.773438	-74.818405
15460.839844	-76.001244
15503.906250	-75.199104
15546.972656	-75.869484
15590.039062	-75.401306
15633.105469	-75.091057
15676.171875	-75.064705
15719.238281	-76.419044
15762.304688	-77.588120
15805.371094	-77.216980
15848.437500	-76.887886
15891.503906	-76.588264
15934.570312	-77.302307
15977.636719	-77.173035
16020.703125	-77.580582
16063.769531	-77.610718
16106.835938	-76.161636
16149.902344	-75.631172
16192.968750	-73.893196
16236.035156	-74.062653
16279.101562	-74.502785
16322.167969	-75.787773
16365.234375	-78.761742
16408.300781	-79.791122
16451.367188	-79.607208
16494.433594	-78.499290
16537.500000	-79.452744
16580.566406	-80.341156
16623.632812	-79.892448
16666.699219	-78.839859
16709.765625	-78.629944
16752.832031	-79.920906
16795.898438	-81.100784
16838.964844	-82.363495
16882.031250	-81.857231
16925.097656	-79.882530
16968.164062	-77.074310
17011.230469	-75.611603
17054.296875	-74.466782
17097.363281	-74.084656
17140.429688	-76.725136
17183.496094	-79.132858
17226.562500	-80.406776
17269.628906	-82.227249
17312.695312	-83.174538
17355.761719	-82.689278
17398.828125	-80.595100
17441.894531	-79.854485
17484.960938	-80.087837
17528.027344	-81.091980
17571.093750	-79.155350
17614.160156	-78.282417
17657.226562	-80.395439
17700.292969	-81.847115
17743.359375	-84.217781
17786.425781	-84.605003
17829.492188	-85.335426
17872.558594	-83.911255
17915.625000	-83.963585
17958.691406	-82.728928
18001.757812	-79.535957
18044.824219	-78.746750
18087.890625	-77.280960
18130.957031	-77.380737
18174.023438	-79.854065
18217.089844	-84.817429
18260.156250	-86.406715
18303.222656	-85.702873
18346.289062	-83.716148
18389.355469	-83.685669
18432.421875	-85.305489
18475.488281	-85.407089
18518.554688	-87.167168
18561.621094	-88.302002
18604.687500	-86.889137
18647.753906	-85.268997
18690.820312	-82.910995
18733.886719	-82.766472
18776.953125	-82.420563
18820.019531	-82.944977
18863.085938	-84.687637
18906.152344	-86.363579
18949.218750	-87.476112
18992.285156	-86.222649
19035.351562	-83.535400
19078.417969	-82.587952
19121.484375	-82.979988
19164.550781	-83.946732
19207.617188	-83.258171
19250.683594	-84.646461
19293.750000	-86.163467
19336.816406	-86.928673
19379.882812	-86.734016
19422.949219	-86.691826
19466.015625	-86.267601
19509.082031	-85.828316
19552.148438	-88.242439
19595.214844	-91.078072
19638.281250	-93.622246
19681.347656	-92.890434
19724.414062	-92.309807
19767.480469	-96.513313
19810.546875	-102.768692
19853.613281	-104.784569
19896.679688	-107.835205
19939.746094	-111.815964
19982.812500	-113.712158
20025.878906	-113.804893
20068.945312	-114.760117
20112.011719	-115.683327
20155.078125	-116.848122
20198.144531	-117.448723
20241.210938	-117.247070
20284.277344	-117.232124
20327.343750	-117.634972
20370.410156	-117.650131
20413.476562	-117.711296
20456.542969	-117.485672
20499.609375	-117.254723
20542.675781	-117.562416
20585.742188	-117.956055
20628.808594	-118.311028
20671.875000	-118.276123
20714.941406	-118.356033
20758.007812	-118.442123
20801.074219	-118.210564
20844.140625	-118.145416
20887.207031	-118.246078
20930.273438	-118.455902
20973.339844	-118.721687
21016.406250	-118.852875
21059.472656	-118.736122
21102.539062	-118.475708
21145.605469	-118.588135
21188.671875	-118.769058
21231.738281	-118.951813
21274.804688	-118.981575
21317.871094	-118.777847
21360.937500	-118.570839
21404.003906	-118.405899
21447.070312	-118.642883
21490.136719	-118.980873
21533.203125	-119.097618
21576.269531	-118.962654
21619.335938	-118.878029
21662.402344	-118.802338
21705.468750	-118.688934
21748.535156	-118.493866
21791.601562	-118.204491
21834.667969	-118.022446
21877.734375	-118.051117
21920.800781	-118.439880
21963.867188	-119.018661
22006.933594	-119.334824
