Frequency (Hz)	Level (dB)
43.066406	-33.363728
86.132812	-23.609369
129.199219	-20.754128
172.265625	-19.995363
215.332031	-17.873430
258.398438	-18.486771
301.464844	-20.675776
344.531250	-22.963085
387.597656	-20.663996
430.664062	-16.760008
473.730469	-18.598307
516.796875	-21.282581
559.863281	-23.532873
602.929688	-24.052265
645.996094	-25.581953
689.062500	-26.865406
732.128906	-29.492802
775.195312	-29.202105
818.261719	-30.193016
861.328125	-27.938913
904.394531	-28.216410
947.460938	-31.103336
990.527344	-27.026852
1033.593750	-29.585550
1076.660156	-32.202362
1119.726562	-33.568043
1162.792969	-31.402987
1205.859375	-31.879641
1248.925781	-35.113159
1291.992188	-30.914753
1335.058594	-28.675816
1378.125000	-33.293716
1421.191406	-34.813244
1464.257812	-31.010542
1507.324219	-30.723042
1550.390625	-33.333282
1593.457031	-33.833889
1636.523438	-34.145813
1679.589844	-34.598820
1722.656250	-32.366459
1765.722656	-29.606842
1808.789062	-33.525124
1851.855469	-39.755344
1894.921875	-40.635632
1937.988281	-35.966084
1981.054688	-32.962536
2024.121094	-34.895065
2067.187500	-36.561432
2110.253906	-35.227337
2153.320312	-35.292442
2196.386719	-34.718227
2239.453125	-35.507790
2282.519531	-37.406288
2325.585938	-35.397285
2368.652344	-33.076328
2411.718750	-33.622231
2454.785156	-33.934509
2497.851562	-34.741409
2540.917969	-36.778564
2583.984375	-33.997169
2627.050781	-30.641554
2670.117188	-30.692490
2713.183594	-34.271095
2756.250000	-37.109154
2799.316406	-37.644566
2842.382812	-37.986160
2885.449219	-36.363041
2928.515625	-33.075447
2971.582031	-31.721113
3014.648438	-34.506416
3057.714844	-36.210117
3100.781250	-34.125828
3143.847656	-33.325821
3186.914062	-33.731445
3229.980469	-34.623531
3273.046875	-33.873325
3316.113281	-32.935860
3359.179688	-33.446987
3402.246094	-33.361469
3445.312500	-31.416843
3488.378906	-29.105013
3531.445312	-27.267658
3574.511719	-27.816513
3617.578125	-30.623154
3660.644531	-31.951794
3703.710938	-33.164867
3746.777344	-34.848660
3789.843750	-35.360256
3832.910156	-34.966068
3875.976562	-34.033504
3919.042969	-31.491570
3962.109375	-30.170404
4005.175781	-31.641054
4048.242188	-33.774548
4091.308594	-33.275124
4134.375000	-33.167767
4177.441406	-34.846172
4220.507812	-36.271233
4263.574219	-37.601101
4306.640625	-37.811031
4349.707031	-37.123535
4392.773438	-36.361298
4435.839844	-36.408916
4478.906250	-37.329678
4521.972656	-38.405693
4565.039062	-38.126274
4608.105469	-37.355270
4651.171875	-37.068565
4694.238281	-36.484207
4737.304688	-36.137127
4780.371094	-36.352356
4823.437500	-36.719585
4866.503906	-36.483181
4909.570312	-36.479332
4952.636719	-37.494926
4995.703125	-38.355412
5038.769531	-38.900208
5081.835938	-39.531120
5124.902344	-39.739365
5167.968750	-39.326668
5211.035156	-38.346405
5254.101562	-37.454456
5297.167969	-37.179249
5340.234375	-37.359737
5383.300781	-37.722160
5426.367188	-38.469231
5469.433594	-39.455257
5512.500000	-40.124149
5555.566406	-40.122578
5598.632812	-40.044495
5641.699219	-39.846066
5684.765625	-39.535564
5727.832031	-39.430630
5770.898438	-39.373035
5813.964844	-39.284313
5857.031250	-38.700577
5900.097656	-37.863808
5943.164062	-37.746864
5986.230469	-38.661995
6029.296875	-40.117188
6072.363281	-41.352642
6115.429688	-42.031940
6158.496094	-42.215595
6201.562500	-42.272446
6244.628906	-42.230389
6287.695312	-42.514694
6330.761719	-42.958267
6373.828125	-43.475796
6416.894531	-43.615326
6459.960938	-43.505077
6503.027344	-43.677032
6546.093750	-43.910843
6589.160156	-44.586407
6632.226562	-45.508934
6675.292969	-46.040264
6718.359375	-46.333027
6761.425781	-46.505657
6804.492188	-46.490311
6847.558594	-46.693562
6890.625000	-46.632198
6933.691406	-46.085159
6976.757812	-45.893517
7019.824219	-45.693050
7062.890625	-45.941685
7105.957031	-46.695789
7149.023438	-47.123024
7192.089844	-47.634171
7235.156250	-48.416523
7278.222656	-49.358097
7321.289062	-49.844032
7364.355469	-49.850529
7407.421875	-49.895161
7450.488281	-50.137470
7493.554688	-50.548534
7536.621094	-50.893604
7579.687500	-51.279972
7622.753906	-51.535053
7665.820312	-51.803806
7708.886719	-52.265198
7751.953125	-52.791569
7795.019531	-53.248676
7838.085938	-53.154057
7881.152344	-52.702080
7924.218750	-52.298187
7967.285156	-52.267963
8010.351562	-52.327469
8053.417969	-53.561790
8096.484375	-54.792858
8139.550781	-55.289135
8182.617188	-55.645634
8225.683594	-56.001835
8268.750000	-56.417648
8311.816406	-56.864243
8354.882812	-57.155262
8397.949219	-57.367146
8441.015625	-57.970524
8484.082031	-58.572895
8527.148438	-58.764679
8570.214844	-59.024658
8613.281250	-59.432671
8656.347656	-59.622070
8699.414062	-59.436138
8742.480469	-59.585587
8785.546875	-59.578629
8828.613281	-59.756947
8871.679688	-60.087261
8914.746094	-60.420044
8957.812500	-61.013004
9000.878906	-62.266109
9043.945312	-63.549809
9087.011719	-64.164055
9130.078125	-64.564850
9173.144531	-64.585976
9216.210938	-64.437202
9259.277344	-64.200111
9302.343750	-64.306496
9345.410156	-64.390572
9388.476562	-64.157494
9431.542969	-64.575790
9474.609375	-65.304909
9517.675781	-65.729408
9560.742188	-66.652435
9603.808594	-67.740601
9646.875000	-68.454735
9689.941406	-68.814064
9733.007812	-69.053215
9776.074219	-69.043381
9819.140625	-68.708038
9862.207031	-68.260231
9905.273438	-68.268837
9948.339844	-68.680435
9991.406250	-69.166039
10034.472656	-69.567673
10077.539062	-70.221619
10120.605469	-71.248032
10163.671875	-72.092438
10206.738281	-73.106934
10249.804688	-73.887985
10292.871094	-74.022552
10335.937500	-74.028656
10379.003906	-74.175858
10422.070312	-74.189003
10465.136719	-74.288727
10508.203125	-74.178551
10551.269531	-74.137146
10594.335938	-74.424286
10637.402344	-74.938347
10680.468750	-75.272408
10723.535156	-75.836571
10766.601562	-76.788422
10809.667969	-77.598404
10852.734375	-78.163773
10895.800781	-78.351952
10938.867188	-78.420929
10981.933594	-78.930016
11025.000000	-79.243172
11068.066406	-79.054550
11111.132812	-78.750656
11154.199219	-78.352371
11197.265625	-78.270813
11240.332031	-77.898659
11283.398438	-78.327827
11326.464844	-79.016960
11369.531250	-79.299393
11412.597656	-80.237801
11455.664062	-81.385338
11498.730469	-82.130249
11541.796875	-82.524055
11584.863281	-82.540581
11627.929688	-82.541168
11670.996094	-82.358353
11714.062500	-81.350586
11757.128906	-80.543259
11800.195312	-80.381844
11843.261719	-80.285576
11886.328125	-80.784477
11929.394531	-81.137688
11972.460938	-81.734566
12015.527344	-82.721535
12058.593750	-83.573593
12101.660156	-84.402992
12144.726562	-85.453903
12187.792969	-85.875763
12230.859375	-85.568413
12273.925781	-85.376579
12316.992188	-85.107979
12360.058594	-84.703598
12403.125000	-84.029732
12446.191406	-83.401772
12489.257812	-82.893341
12532.324219	-82.921700
12575.390625	-84.126534
12618.457031	-85.523315
12661.523438	-86.708344
12704.589844	-86.990753
12747.656250	-86.872108
12790.722656	-87.483940
12833.789062	-87.490120
12876.855469	-87.211578
12919.921875	-87.592354
12962.988281	-87.553940
13006.054688	-87.462227
13049.121094	-87.705528
13092.187500	-88.018356
13135.253906	-87.412170
13178.320312	-88.183601
13221.386719	-89.434937
13264.453125	-90.249413
13307.519531	-90.941467
13350.585938	-90.935555
13393.652344	-89.996468
13436.718750	-89.147949
13479.785156	-88.978104
13522.851562	-89.103386
13565.917969	-88.913414
13608.984375	-88.711197
13652.050781	-89.360718
13695.117188	-89.577293
13738.183594	-90.283943
13781.250000	-90.370407
13824.316406	-90.169624
13867.382812	-89.859833
13910.449219	-89.551727
13953.515625	-90.111145
13996.582031	-90.713058
14039.648438	-91.227203
14082.714844	-90.898605
14125.781250	-91.146179
14168.847656	-91.715263
14211.914062	-91.955910
14254.980469	-92.717369
14298.046875	-93.756439
14341.113281	-93.934143
14384.179688	-95.592827
14427.246094	-96.839867
14470.312500	-96.561409
14513.378906	-97.774170
14556.445312	-98.473251
14599.511719	-98.993553
14642.578125	-99.503609
14685.644531	-99.028137
14728.710938	-98.816620
14771.777344	-99.382462
14814.843750	-99.626617
14857.910156	-100.427353
14900.976562	-100.842789
14944.042969	-101.964577
14987.109375	-104.131508
15030.175781	-105.017982
15073.242188	-103.086212
15116.308594	-102.980171
15159.375000	-103.677116
15202.441406	-103.090950
15245.507812	-101.841187
15288.574219	-104.067520
15331.640625	-105.792397
15374.707031	-104.217743
15417.773438	-102.431366
15460.839844	-103.883629
15503.906250	-106.686180
15546.972656	-106.437965
15590.039062	-109.059975
15633.105469	-110.262756
15676.171875	-107.927330
15719.238281	-109.548981
15762.304688	-116.024147
15805.371094	-126.487183
15848.437500	-130.773148
15891.503906	-130.571075
15934.570312	-129.272476
15977.636719	-129.956100
16020.703125	-131.949814
16063.769531	-130.061737
16106.835938	-129.517609
16149.902344	-131.786102
16192.968750	-133.623337
16236.035156	-131.614441
16279.101562	-130.235306
16322.167969	-131.094269
16365.234375	-133.946487
16408.300781	-131.494919
16451.367188	-130.511322
16494.433594	-132.188828
16537.500000	-133.451279
16580.566406	-132.227798
16623.632812	-131.011703
16666.699219	-131.830643
16709.765625	-134.439087
16752.832031	-132.067245
16795.898438	-131.102020
16838.964844	-133.099289
16882.031250	-135.693207
16925.097656	-133.886887
16968.164062	-131.861145
17011.230469	-132.440063
17054.296875	-135.216080
17097.363281	-132.810257
17140.429688	-131.939011
17183.496094	-133.914169
17226.562500	-135.895279
17269.628906	-134.455017
17312.695312	-132.670135
17355.761719	-133.341232
17398.828125	-135.942215
17441.894531	-133.415222
17484.960938	-132.593124
17528.027344	-134.655014
17571.093750	-136.934982
17614.160156	-135.158478
17657.226562	-133.310837
17700.292969	-133.870056
17743.359375	-136.591721
17786.425781	-134.255646
17829.492188	-133.280579
17872.558594	-135.125137
17915.625000	-137.555145
17958.691406	-135.853714
18001.757812	-133.955368
18044.824219	-134.618073
18087.890625	-137.268539
18130.957031	-134.969818
18174.023438	-133.939392
18217.089844	-135.839310
18260.156250	-138.119278
18303.222656	-136.377625
18346.289062	-134.668610
18389.355469	-135.301819
18432.421875	-137.804398
18475.488281	-135.546600
18518.554688	-134.554611
18561.621094	-136.442505
18604.687500	-138.541245
18647.753906	-137.008057
18690.820312	-135.324524
18733.886719	-135.911804
18776.953125	-138.335617
18820.019531	-136.327759
18863.085938	-135.331482
18906.152344	-137.107239
18949.218750	-139.024750
18992.285156	-137.334045
19035.351562	-135.557846
19078.417969	-135.943451
19121.484375	-138.587189
19164.550781	-136.887650
19207.617188	-135.870667
19250.683594	-137.162018
19293.750000	-138.883301
19336.816406	-138.246094
19379.882812	-137.075806
19422.949219	-137.860580
19466.015625	-139.996017
19509.082031	-138.415573
19552.148438	-137.545410
19595.214844	-139.038132
19638.281250	-140.376862
19681.347656	-139.121140
19724.414062	-137.691284
19767.480469	-138.424469
19810.546875	-140.248459
19853.613281	-139.528214
19896.679688	-138.375900
19939.746094	-138.516541
19982.812500	-140.746429
20025.878906	-141.103714
20068.945312	-140.736740
20112.011719	-141.587402
20155.078125	-143.189041
20198.144531	-141.929199
20241.210938	-140.833878
20284.277344	-141.704987
20327.343750	-143.819489
20370.410156	-143.029861
20413.476562	-142.373550
20456.542969	-142.478088
20499.609375	-142.733902
20542.675781	-142.949707
20585.742188	-143.933624
20628.808594	-144.560242
20671.875000	-144.035995
20714.941406	-144.072479
20758.007812	-143.996353
20801.074219	-143.939484
20844.140625	-144.297150
20887.207031	-144.531845
20930.273438	-144.024902
20973.339844	-144.386169
21016.406250	-147.194931
21059.472656	-149.311371
21102.539062	-149.728043
21145.605469	-149.705551
21188.671875	-151.357422
21231.738281	-153.969833
21274.804688	-156.238922
21317.871094	-158.105240
21360.937500	-160.099686
21404.003906	-161.842209
21447.070312	-163.319763
21490.136719	-164.596786
21533.203125	-164.274139
21576.269531	-162.632858
21619.335938	-161.393082
21662.402344	-164.599426
21705.468750	-166.757462
21748.535156	-165.061264
21791.601562	-162.858490
21834.667969	-162.721115
21877.734375	-164.628906
21920.800781	-165.221436
21963.867188	-167.576050
22006.933594	-173.188339
