Frequency (Hz)	Level (dB)
43.066406	-31.963213
86.132812	-23.395107
129.199219	-22.176847
172.265625	-22.282177
215.332031	-21.422447
258.398438	-22.115438
301.464844	-24.954351
344.531250	-28.219234
387.597656	-29.120907
430.664062	-26.671478
473.730469	-26.495281
516.796875	-26.563091
559.863281	-27.719883
602.929688	-27.190107
645.996094	-24.428049
689.062500	-25.425102
732.128906	-29.703152
775.195312	-26.667528
818.261719	-26.750919
861.328125	-26.235346
904.394531	-26.462986
947.460938	-27.909466
990.527344	-26.376040
1033.593750	-27.551598
1076.660156	-28.269379
1119.726562	-28.577723
1162.792969	-28.904526
1205.859375	-30.252001
1248.925781	-30.099146
1291.992188	-24.120346
1335.058594	-21.969528
1378.125000	-27.437441
1421.191406	-34.820522
1464.257812	-34.838722
1507.324219	-34.312405
1550.390625	-32.865627
1593.457031	-31.892189
1636.523438	-33.988701
1679.589844	-32.076015
1722.656250	-32.219810
1765.722656	-32.418613
1808.789062	-37.405003
1851.855469	-40.167728
1894.921875	-39.561153
1937.988281	-38.056545
1981.054688	-34.097206
2024.121094	-34.550072
2067.187500	-37.975346
2110.253906	-37.763607
2153.320312	-37.459274
2196.386719	-36.148727
2239.453125	-37.733006
2282.519531	-40.128567
2325.585938	-40.019527
2368.652344	-39.621761
2411.718750	-39.972931
2454.785156	-39.221825
2497.851562	-38.720036
2540.917969	-39.537415
2583.984375	-41.312160
2627.050781	-39.407284
2670.117188	-36.609142
2713.183594	-37.129322
2756.250000	-41.161434
2799.316406	-43.462185
2842.382812	-43.243080
2885.449219	-43.378647
2928.515625	-43.559757
2971.582031	-42.234497
3014.648438	-41.446014
3057.714844	-43.666878
3100.781250	-45.860600
3143.847656	-44.269611
3186.914062	-42.070393
3229.980469	-42.644341
3273.046875	-45.163975
3316.113281	-44.743332
3359.179688	-42.418633
3402.246094	-42.020939
3445.312500	-43.095009
3488.378906	-44.013844
3531.445312	-42.866867
3574.511719	-42.694752
3617.578125	-43.552238
3660.644531	-44.094509
3703.710938	-44.290607
3746.777344	-45.236572
3789.843750	-46.253315
3832.910156	-45.959557
3875.976562	-44.418022
3919.042969	-45.750729
3962.109375	-44.672462
4005.175781	-42.684837
4048.242188	-43.265236
4091.308594	-46.277203
4134.375000	-47.760937
4177.441406	-48.004547
4220.507812	-46.959488
4263.574219	-45.853935
4306.640625	-46.117607
4349.707031	-46.909824
4392.773438	-48.200581
4435.839844	-48.028324
4478.906250	-47.711212
4521.972656	-47.836746
4565.039062	-48.595440
4608.105469	-49.743279
4651.171875	-50.134727
4694.238281	-50.174953
4737.304688	-48.620754
4780.371094	-48.672527
4823.437500	-49.780502
4866.503906	-50.159157
4909.570312	-49.204308
4952.636719	-49.581985
4995.703125	-48.678104
5038.769531	-47.670746
5081.835938	-49.437775
5124.902344	-51.952858
5167.968750	-52.396225
5211.035156	-52.518738
5254.101562	-51.740551
5297.167969	-50.454136
5340.234375	-49.704498
5383.300781	-50.477604
5426.367188	-53.123493
5469.433594	-53.341850
5512.500000	-51.047733
5555.566406	-50.577663
5598.632812	-51.723354
5641.699219	-51.606735
5684.765625	-51.935955
5727.832031	-52.671173
5770.898438	-52.522339
5813.964844	-51.539280
5857.031250	-51.723579
5900.097656	-52.031349
5943.164062	-52.244591
5986.230469	-51.425068
6029.296875	-49.158157
6072.363281	-50.428436
6115.429688	-53.070889
6158.496094	-54.273312
6201.562500	-54.460258
6244.628906	-53.161263
6287.695312	-53.375702
6330.761719	-53.839935
6373.828125	-53.688225
6416.894531	-54.267857
6459.960938	-55.351273
6503.027344	-55.093784
6546.093750	-54.558228
6589.160156	-55.297756
6632.226562	-55.523891
6675.292969	-55.593723
6718.359375	-55.143787
6761.425781	-55.463112
6804.492188	-56.135288
6847.558594	-56.294476
6890.625000	-56.202362
6933.691406	-55.549717
6976.757812	-55.046055
7019.824219	-54.557331
7062.890625	-54.599163
7105.957031	-55.565331
7149.023438	-55.885242
7192.089844	-54.893993
7235.156250	-54.919575
7278.222656	-55.744129
7321.289062	-55.789833
7364.355469	-55.620449
7407.421875	-55.560146
7450.488281	-56.024685
7493.554688	-56.189598
7536.621094	-55.716419
7579.687500	-55.748711
7622.753906	-56.431885
7665.820312	-56.841396
7708.886719	-55.775196
7751.953125	-54.358238
7795.019531	-55.956673
7838.085938	-56.928082
7881.152344	-56.448189
7924.218750	-56.955059
7967.285156	-57.207951
8010.351562	-56.918716
8053.417969	-56.929806
8096.484375	-57.386192
8139.550781	-57.276573
8182.617188	-57.616901
8225.683594	-58.738552
8268.750000	-59.480595
8311.816406	-59.466434
8354.882812	-59.243324
8397.949219	-58.982246
8441.015625	-58.971909
8484.082031	-59.049889
8527.148438	-59.417934
8570.214844	-59.295372
8613.281250	-58.157024
8656.347656	-58.725197
8699.414062	-60.115055
8742.480469	-60.239853
8785.546875	-60.166798
8828.613281	-60.190815
8871.679688	-60.262886
8914.746094	-59.660126
8957.812500	-60.513084
9000.878906	-60.667877
9043.945312	-60.673187
9087.011719	-60.614502
9130.078125	-60.589752
9173.144531	-60.571953
9216.210938	-60.955750
9259.277344	-61.225433
9302.343750	-61.253490
9345.410156	-61.484577
9388.476562	-60.782425
9431.542969	-60.997562
9474.609375	-61.323593
9517.675781	-61.294186
9560.742188	-61.535885
9603.808594	-61.865601
9646.875000	-62.637074
9689.941406	-62.898529
9733.007812	-62.655293
9776.074219	-63.069252
9819.140625	-63.536606
9862.207031	-63.432816
9905.273438	-63.361469
9948.339844	-63.446335
9991.406250	-62.982628
10034.472656	-63.308094
10077.539062	-63.877857
10120.605469	-64.217155
10163.671875	-64.176285
10206.738281	-64.408676
10249.804688	-65.319191
10292.871094	-65.455292
10335.937500	-65.502823
10379.003906	-65.522133
10422.070312	-65.351982
10465.136719	-65.552406
10508.203125	-65.722221
10551.269531	-65.653168
10594.335938	-64.829376
10637.402344	-65.052345
10680.468750	-65.745956
10723.535156	-65.604836
10766.601562	-64.491577
10809.667969	-64.057304
10852.734375	-65.020874
10895.800781	-65.852959
10938.867188	-66.359222
10981.933594	-66.103722
11025.000000	-65.752136
11068.066406	-65.329063
11111.132812	-64.659912
11154.199219	-64.372551
11197.265625	-64.446945
11240.332031	-65.119690
11283.398438	-65.203201
11326.464844	-64.596420
11369.531250	-64.342361
11412.597656	-65.009064
11455.664062	-66.362030
11498.730469	-66.443802
11541.796875	-66.137596
11584.863281	-65.710327
11627.929688	-65.329735
11670.996094	-64.909523
11714.062500	-65.103584
11757.128906	-65.478165
11800.195312	-65.281067
11843.261719	-65.055870
11886.328125	-65.501991
11929.394531	-65.732536
11972.460938	-65.753159
12015.527344	-65.099434
12058.593750	-64.837570
12101.660156	-64.645897
12144.726562	-64.987526
12187.792969	-64.154213
12230.859375	-65.036728
12273.925781	-66.072037
12316.992188	-66.704292
12360.058594	-67.101357
12403.125000	-66.775558
12446.191406	-66.532791
12489.257812	-66.286621
12532.324219	-65.740791
12575.390625	-66.380173
12618.457031	-67.351212
12661.523438	-66.822655
12704.589844	-66.121117
12747.656250	-66.589005
12790.722656	-65.567284
12833.789062	-66.247116
12876.855469	-67.221855
12919.921875	-68.185371
12962.988281	-68.298996
13006.054688	-68.222725
13049.121094	-69.321213
13092.187500	-69.694931
13135.253906	-69.653214
13178.320312	-69.501762
13221.386719	-69.942810
13264.453125	-70.107513
13307.519531	-69.813004
13350.585938	-70.343269
13393.652344	-70.054703
13436.718750	-70.000023
13479.785156	-70.769745
13522.851562	-69.710793
13565.917969	-69.294533
13608.984375	-68.904160
13652.050781	-69.136108
13695.117188	-68.167900
13738.183594	-68.576035
13781.250000	-70.461952
13824.316406	-69.448059
13867.382812	-67.539177
13910.449219	-67.599434
13953.515625	-69.162529
13996.582031	-69.274590
14039.648438	-71.099854
14082.714844	-72.282639
14125.781250	-72.092743
14168.847656	-70.194275
14211.914062	-68.977654
14254.980469	-69.618469
14298.046875	-69.578522
14341.113281	-71.720558
14384.179688	-72.642448
14427.246094	-71.650681
14470.312500	-70.308380
14513.378906	-69.429146
14556.445312	-69.889366
14599.511719	-70.801018
14642.578125	-70.435577
14685.644531	-70.880096
14728.710938	-72.227852
14771.777344	-73.175606
14814.843750	-72.545860
14857.910156	-71.010223
14900.976562	-70.791512
14944.042969	-72.014214
14987.109375	-69.515022
15030.175781	-69.679565
15073.242188	-71.696587
15116.308594	-73.600883
15159.375000	-74.176033
15202.441406	-72.550018
15245.507812	-72.633842
15288.574219	-72.040390
15331.640625	-71.420990
15374.707031	-71.235832
15417.773438	-71.809540
15460.839844	-73.821655
15503.906250	-73.912674
15546.972656	-75.261406
15590.039062	-75.428413
15633.105469	-74.679245
15676.171875	-75.456520
15719.238281	-76.887215
15762.304688	-76.622444
15805.371094	-76.282875
15848.437500	-76.545074
15891.503906	-75.568687
15934.570312	-76.645531
15977.636719	-76.794182
16020.703125	-77.303078
16063.769531	-77.359207
16106.835938	-76.483765
16149.902344	-76.659447
16192.968750	-73.748268
16236.035156	-73.351479
16279.101562	-73.692184
16322.167969	-75.264381
16365.234375	-78.419868
16408.300781	-79.918755
16451.367188	-79.602608
16494.433594	-78.346176
16537.500000	-79.232231
16580.566406	-80.431366
16623.632812	-80.263344
16666.699219	-78.427086
16709.765625	-78.090187
16752.832031	-79.747475
16795.898438	-80.874176
16838.964844	-82.762321
16882.031250	-82.227882
16925.097656	-80.331139
16968.164062	-77.526390
17011.230469	-76.823997
17054.296875	-76.122353
17097.363281	-75.622940
17140.429688	-78.771194
17183.496094	-80.669899
17226.562500	-80.620087
17269.628906	-81.481575
17312.695312	-82.252335
17355.761719	-82.120766
17398.828125	-79.957176
17441.894531	-79.911949
17484.960938	-81.215714
17528.027344	-84.191025
17571.093750	-83.941971
17614.160156	-83.408958
17657.226562	-85.119682
17700.292969	-84.848526
17743.359375	-86.229622
17786.425781	-84.737358
17829.492188	-85.878304
17872.558594	-86.088211
17915.625000	-87.017288
17958.691406	-86.380028
18001.757812	-84.277946
18044.824219	-85.091118
18087.890625	-83.777489
18130.957031	-83.962822
18174.023438	-86.505547
18217.089844	-89.527122
18260.156250	-89.481285
18303.222656	-87.727119
18346.289062	-85.935463
18389.355469	-84.861237
18432.421875	-86.425697
18475.488281	-86.735054
18518.554688	-88.717453
18561.621094	-89.980446
18604.687500	-87.759872
18647.753906	-86.009209
18690.820312	-83.829636
18733.886719	-84.365524
18776.953125	-84.568466
18820.019531	-85.447685
18863.085938	-87.304268
18906.152344	-89.455597
18949.218750	-92.118126
18992.285156	-90.307312
19035.351562	-89.470795
19078.417969	-88.861916
19121.484375	-89.109360
19164.550781	-89.177055
19207.617188	-87.756981
19250.683594	-89.207428
19293.750000	-89.858383
19336.816406	-90.466690
19379.882812	-90.445366
19422.949219	-90.828842
19466.015625	-90.507462
19509.082031	-90.110710
19552.148438	-93.206467
19595.214844	-96.193886
19638.281250	-99.009834
19681.347656	-98.066910
19724.414062	-97.624229
19767.480469	-101.635086
19810.546875	-104.337212
19853.613281	-105.064697
19896.679688	-107.165482
19939.746094	-111.545624
19982.812500	-113.399834
20025.878906	-112.392654
20068.945312	-112.414108
20112.011719	-112.673401
20155.078125	-115.000000
20198.144531	-115.330826
20241.210938	-115.049530
20284.277344	-116.080627
20327.343750	-117.281357
20370.410156	-116.723541
20413.476562	-116.901184
20456.542969	-117.233246
20499.609375	-115.883873
20542.675781	-114.920525
20585.742188	-115.562813
20628.808594	-118.012497
20671.875000	-119.400337
20714.941406	-119.579750
20758.007812	-119.196587
20801.074219	-118.854881
20844.140625	-119.228798
20887.207031	-119.493683
20930.273438	-119.686226
20973.339844	-119.767120
21016.406250	-119.784134
21059.472656	-119.634651
21102.539062	-119.486595
21145.605469	-119.676872
21188.671875	-119.790840
21231.738281	-119.858040
21274.804688	-119.578217
21317.871094	-119.505760
21360.937500	-119.721024
21404.003906	-119.752327
21447.070312	-119.980782
21490.136719	-119.331764
21533.203125	-119.571922
21576.269531	-118.945602
21619.335938	-118.850311
21662.402344	-119.787117
21705.468750	-119.525558
21748.535156	-119.754196
21791.601562	-119.382500
21834.667969	-119.512634
21877.734375	-116.897606
21920.800781	-116.826759
21963.867188	-119.636421
22006.933594	-119.523605
