Frequency (Hz)	Level (dB)
43.066406	-31.757341
86.132812	-23.288776
129.199219	-22.118210
172.265625	-22.231701
215.332031	-21.438623
258.398438	-22.284990
301.464844	-25.186531
344.531250	-28.358728
387.597656	-29.185390
430.664062	-26.638615
473.730469	-26.336203
516.796875	-26.367321
559.863281	-27.625082
602.929688	-27.027319
645.996094	-24.154327
689.062500	-25.150499
732.128906	-29.554499
775.195312	-26.532753
818.261719	-26.592209
861.328125	-26.173201
904.394531	-26.479334
947.460938	-27.905018
990.527344	-26.211985
1033.593750	-27.397541
1076.660156	-28.297874
1119.726562	-28.626154
1162.792969	-28.820869
1205.859375	-30.158226
1248.925781	-30.093708
1291.992188	-24.133587
1335.058594	-21.984558
1378.125000	-27.447950
1421.191406	-34.826759
1464.257812	-34.878242
1507.324219	-34.339546
1550.390625	-32.355663
1593.457031	-31.350136
1636.523438	-33.962509
1679.589844	-32.150471
1722.656250	-32.238480
1765.722656	-32.442036
1808.789062	-37.481308
1851.855469	-40.307301
1894.921875	-39.730350
1937.988281	-38.142033
1981.054688	-34.114170
2024.121094	-34.547295
2067.187500	-38.002018
2110.253906	-37.801239
2153.320312	-37.486523
2196.386719	-36.104149
2239.453125	-37.646130
2282.519531	-40.042103
2325.585938	-39.848785
2368.652344	-39.318848
2411.718750	-39.622341
2454.785156	-39.035614
2497.851562	-38.662727
2540.917969	-39.540871
2583.984375	-41.493626
2627.050781	-39.625031
2670.117188	-36.711090
2713.183594	-37.064392
2756.250000	-40.995819
2799.316406	-43.609711
2842.382812	-43.445702
2885.449219	-43.591686
2928.515625	-43.721928
2971.582031	-42.299290
3014.648438	-41.462421
3057.714844	-43.717716
3100.781250	-46.077969
3143.847656	-44.414051
3186.914062	-42.095776
3229.980469	-42.686096
3273.046875	-45.381424
3316.113281	-45.109192
3359.179688	-42.748623
3402.246094	-42.237732
3445.312500	-43.234142
3488.378906	-44.106068
3531.445312	-42.928917
3574.511719	-42.743237
3617.578125	-43.607853
3660.644531	-44.213955
3703.710938	-44.412952
3746.777344	-45.377579
3789.843750	-46.433903
3832.910156	-46.030418
3875.976562	-44.351246
3919.042969	-45.753510
3962.109375	-44.690304
4005.175781	-42.823868
4048.242188	-43.520599
4091.308594	-46.508934
4134.375000	-48.101707
4177.441406	-48.493435
4220.507812	-47.399265
4263.574219	-46.256050
4306.640625	-46.509220
4349.707031	-47.299324
4392.773438	-48.657089
4435.839844	-48.522099
4478.906250	-48.082020
4521.972656	-48.127834
4565.039062	-48.920483
4608.105469	-50.188786
4651.171875	-50.602543
4694.238281	-50.524284
4737.304688	-48.851482
4780.371094	-48.901001
4823.437500	-50.130093
4866.503906	-50.640598
4909.570312	-49.551476
4952.636719	-49.950066
4995.703125	-48.991879
5038.769531	-47.839134
5081.835938	-49.739548
5124.902344	-52.444290
5167.968750	-52.721718
5211.035156	-52.780525
5254.101562	-52.121571
5297.167969	-50.867405
5340.234375	-50.130348
5383.300781	-50.887375
5426.367188	-53.710896
5469.433594	-53.860977
5512.500000	-51.294090
5555.566406	-50.937485
5598.632812	-52.468330
5641.699219	-52.305038
5684.765625	-52.539326
5727.832031	-53.170387
5770.898438	-52.836769
5813.964844	-51.828449
5857.031250	-52.123451
5900.097656	-52.441132
5943.164062	-52.711246
5986.230469	-51.820065
6029.296875	-49.355145
6072.363281	-50.661865
6115.429688	-53.457924
6158.496094	-54.708820
6201.562500	-54.808979
6244.628906	-53.494713
6287.695312	-53.875156
6330.761719	-54.505878
6373.828125	-54.279358
6416.894531	-54.652607
6459.960938	-55.675571
6503.027344	-55.482143
6546.093750	-55.036400
6589.160156	-56.005367
6632.226562	-56.334015
6675.292969	-56.342281
6718.359375	-55.763420
6761.425781	-56.060429
6804.492188	-56.814079
6847.558594	-57.140930
6890.625000	-56.872334
6933.691406	-55.881004
6976.757812	-55.270180
7019.824219	-54.806221
7062.890625	-55.022308
7105.957031	-56.228321
7149.023438	-56.470509
7192.089844	-55.065311
7235.156250	-55.065830
7278.222656	-56.142895
7321.289062	-56.324490
7364.355469	-56.112106
7407.421875	-55.925697
7450.488281	-56.345028
7493.554688	-56.549873
7536.621094	-56.119804
7579.687500	-56.189255
7622.753906	-57.130165
7665.820312	-57.597130
7708.886719	-55.974754
7751.953125	-54.125454
7795.019531	-56.054913
7838.085938	-57.563938
7881.152344	-56.907452
7924.218750	-57.389111
7967.285156	-57.756866
8010.351562	-57.575512
8053.417969	-57.757603
8096.484375	-58.332191
8139.550781	-58.087044
8182.617188	-58.299900
8225.683594	-59.709137
8268.750000	-60.868183
8311.816406	-60.976788
8354.882812	-60.907585
8397.949219	-60.749706
8441.015625	-60.696899
8484.082031	-60.807686
8527.148438	-61.131271
8570.214844	-60.965595
8613.281250	-59.445820
8656.347656	-60.210270
8699.414062	-61.988480
8742.480469	-62.040913
8785.546875	-62.223392
8828.613281	-62.318993
8871.679688	-61.832710
8914.746094	-60.558552
8957.812500	-61.883591
9000.878906	-62.834240
9043.945312	-62.936333
9087.011719	-62.933186
9130.078125	-62.412666
9173.144531	-61.908844
9216.210938	-62.328976
9259.277344	-62.901737
9302.343750	-62.834175
9345.410156	-63.580791
9388.476562	-63.286617
9431.542969	-63.215588
9474.609375	-63.205921
9517.675781	-62.831429
9560.742188	-63.415958
9603.808594	-64.505997
9646.875000	-65.138672
9689.941406	-65.345016
9733.007812	-64.876251
9776.074219	-65.040955
9819.140625	-65.840073
9862.207031	-66.087463
9905.273438	-66.176247
9948.339844	-66.116371
9991.406250	-65.879066
10034.472656	-66.307068
10077.539062	-66.611877
10120.605469	-67.077766
10163.671875	-67.752739
10206.738281	-67.747070
10249.804688	-67.527252
10292.871094	-67.596619
10335.937500	-68.057625
10379.003906	-68.362717
10422.070312	-68.471001
10465.136719	-68.585876
10508.203125	-68.589104
10551.269531	-68.992180
10594.335938	-68.999329
10637.402344	-68.158989
10680.468750	-68.216171
10723.535156	-68.269936
10766.601562	-68.284203
10809.667969	-68.371498
10852.734375	-68.322823
10895.800781	-68.746048
10938.867188	-68.529732
10981.933594	-68.141724
11025.000000	-68.382889
11068.066406	-68.799080
11111.132812	-68.847794
11154.199219	-68.846252
11197.265625	-68.482880
11240.332031	-68.347214
11283.398438	-67.601860
11326.464844	-66.489052
11369.531250	-67.346588
11412.597656	-69.126564
11455.664062	-70.127571
11498.730469	-70.121895
11541.796875	-69.732628
11584.863281	-69.346291
11627.929688	-69.089386
11670.996094	-69.126015
11714.062500	-69.723152
11757.128906	-70.238739
11800.195312	-69.594383
11843.261719	-69.027710
11886.328125	-68.868698
11929.394531	-68.764565
11972.460938	-68.358177
12015.527344	-67.648895
12058.593750	-66.902008
12101.660156	-67.161575
12144.726562	-68.213913
12187.792969	-69.620689
12230.859375	-70.145164
12273.925781	-69.876053
12316.992188	-70.087410
12360.058594	-70.826462
12403.125000	-71.172890
12446.191406	-71.511147
12489.257812	-71.366966
12532.324219	-71.275848
12575.390625	-72.039986
12618.457031	-72.643921
12661.523438	-73.006615
12704.589844	-73.157478
12747.656250	-73.208244
12790.722656	-73.462349
12833.789062	-74.029236
12876.855469	-74.692474
12919.921875	-75.259377
12962.988281	-75.168510
13006.054688	-75.130692
13049.121094	-75.136635
13092.187500	-75.444405
13135.253906	-75.995071
13178.320312	-76.504669
13221.386719	-77.089622
13264.453125	-77.799873
13307.519531	-78.233749
13350.585938	-78.293869
13393.652344	-77.932991
13436.718750	-77.811172
13479.785156	-77.596405
13522.851562	-77.715736
13565.917969	-78.178986
13608.984375	-78.560516
13652.050781	-78.975204
13695.117188	-79.391609
13738.183594	-79.592133
13781.250000	-79.448296
13824.316406	-79.400009
13867.382812	-79.807404
13910.449219	-80.457390
13953.515625	-80.817314
13996.582031	-81.220482
14039.648438	-81.649979
14082.714844	-81.692368
14125.781250	-81.849403
14168.847656	-82.016495
14211.914062	-82.296524
14254.980469	-82.579918
14298.046875	-82.548576
14341.113281	-82.676628
14384.179688	-83.015785
14427.246094	-83.102409
14470.312500	-83.238327
14513.378906	-82.837486
14556.445312	-82.162102
14599.511719	-82.312073
14642.578125	-83.376305
14685.644531	-84.320335
14728.710938	-84.587837
14771.777344	-84.583824
14814.843750	-84.734261
14857.910156	-84.868813
14900.976562	-84.849968
14944.042969	-84.988625
14987.109375	-85.354134
15030.175781	-85.672356
15073.242188	-85.703537
15116.308594	-85.496162
15159.375000	-85.960236
15202.441406	-87.427719
15245.507812	-87.794525
15288.574219	-87.664070
15331.640625	-87.780869
15374.707031	-87.835716
15417.773438	-88.101006
15460.839844	-88.668488
15503.906250	-89.120338
15546.972656	-89.373497
15590.039062	-89.788750
15633.105469	-89.880043
15676.171875	-90.179565
15719.238281	-91.445602
15762.304688	-95.667412
15805.371094	-100.874413
15848.437500	-104.167709
15891.503906	-108.069237
15934.570312	-109.239769
15977.636719	-110.331627
16020.703125	-111.533020
16063.769531	-112.087502
16106.835938	-112.505432
16149.902344	-112.968071
16192.968750	-113.122803
16236.035156	-113.231178
16279.101562	-113.808601
16322.167969	-114.821686
16365.234375	-115.738785
16408.300781	-116.571907
16451.367188	-117.888474
16494.433594	-120.380386
16537.500000	-123.185089
16580.566406	-124.383453
16623.632812	-126.046227
16666.699219	-129.646225
16709.765625	-134.351028
16752.832031	-131.696732
16795.898438	-130.271790
16838.964844	-132.410263
16882.031250	-135.049545
16925.097656	-130.682663
16968.164062	-129.605453
17011.230469	-132.225647
17054.296875	-135.876282
17097.363281	-133.021393
17140.429688	-131.443604
17183.496094	-133.315994
17226.562500	-135.697739
17269.628906	-131.468201
17312.695312	-130.439941
17355.761719	-133.216003
17398.828125	-136.728226
17441.894531	-133.762238
17484.960938	-132.263626
17528.027344	-134.211685
17571.093750	-136.580109
17614.160156	-132.117752
17657.226562	-131.159653
17700.292969	-133.970444
17743.359375	-137.430725
17786.425781	-134.607452
17829.492188	-132.903595
17872.558594	-134.214233
17915.625000	-136.796432
17958.691406	-132.845261
18001.757812	-131.879120
18044.824219	-134.676392
18087.890625	-138.064697
18130.957031	-135.360611
18174.023438	-133.946045
18217.089844	-135.911865
18260.156250	-138.060242
18303.222656	-133.598236
18346.289062	-132.662064
18389.355469	-135.480927
18432.421875	-138.857529
18475.488281	-136.130844
18518.554688	-134.759293
18561.621094	-136.805511
18604.687500	-138.790527
18647.753906	-134.377853
18690.820312	-133.456390
18733.886719	-136.356735
18776.953125	-139.740280
18820.019531	-137.074478
18863.085938	-135.771622
18906.152344	-137.783661
18949.218750	-139.624512
18992.285156	-135.240768
19035.351562	-134.358871
19078.417969	-137.178925
19121.484375	-140.500870
19164.550781	-137.972656
19207.617188	-136.723877
19250.683594	-138.482880
19293.750000	-140.086182
19336.816406	-136.351257
19379.882812	-135.581940
19422.949219	-138.518646
19466.015625	-141.817184
19509.082031	-139.535934
19552.148438	-138.452332
19595.214844	-140.344330
19638.281250	-141.644455
19681.347656	-137.902161
19724.414062	-137.147736
19767.480469	-139.790359
19810.546875	-142.741776
19853.613281	-141.170303
19896.679688	-140.440598
19939.746094	-142.387131
19982.812500	-143.745453
20025.878906	-140.757019
20068.945312	-140.195602
20112.011719	-142.919662
20155.078125	-144.852417
20198.144531	-143.495178
20241.210938	-143.351227
20284.277344	-144.822159
20327.343750	-145.662827
20370.410156	-143.279312
20413.476562	-142.935257
20456.542969	-143.873978
20499.609375	-141.742737
20542.675781	-141.025146
20585.742188	-144.387161
20628.808594	-146.468307
20671.875000	-147.035461
20714.941406	-146.391190
20758.007812	-145.409683
20801.074219	-146.091446
20844.140625	-147.267197
20887.207031	-146.407806
20930.273438	-146.541840
20973.339844	-147.980652
21016.406250	-150.480438
21059.472656	-151.186996
21102.539062	-153.594406
21145.605469	-154.969528
21188.671875	-154.648331
21231.738281	-156.624481
21274.804688	-160.227417
21317.871094	-163.012360
21360.937500	-164.576019
21404.003906	-165.572815
21447.070312	-168.552536
21490.136719	-170.218063
21533.203125	-169.927002
21576.269531	-170.189301
21619.335938	-170.715347
21662.402344	-172.343719
21705.468750	-172.431274
21748.535156	-169.837143
21791.601562	-166.729843
21834.667969	-166.165894
21877.734375	-167.147400
21920.800781	-166.847595
21963.867188	-167.827469
22006.933594	-173.552795
