Frequency (Hz)	Level (dB)
43.066406	-31.728413
86.132812	-23.285580
129.199219	-22.065865
172.265625	-22.162491
215.332031	-21.419016
258.398438	-22.110121
301.464844	-24.819405
344.531250	-27.953171
387.597656	-28.945499
430.664062	-26.589048
473.730469	-26.430775
516.796875	-26.617680
559.863281	-27.676050
602.929688	-26.740047
645.996094	-23.525887
689.062500	-24.559967
732.128906	-29.266216
775.195312	-26.384081
818.261719	-26.412949
861.328125	-25.850885
904.394531	-26.364233
947.460938	-28.205482
990.527344	-26.212912
1033.593750	-27.388062
1076.660156	-28.241819
1119.726562	-28.408901
1162.792969	-28.666672
1205.859375	-30.118587
1248.925781	-29.978254
1291.992188	-24.044823
1335.058594	-21.954742
1378.125000	-27.467487
1421.191406	-34.617382
1464.257812	-34.483116
1507.324219	-33.947121
1550.390625	-33.070786
1593.457031	-32.264965
1636.523438	-34.084446
1679.589844	-32.212749
1722.656250	-32.173759
1765.722656	-32.288544
1808.789062	-37.425694
1851.855469	-40.428493
1894.921875	-39.845913
1937.988281	-38.132034
1981.054688	-33.887989
2024.121094	-34.273846
2067.187500	-37.718311
2110.253906	-37.592934
2153.320312	-37.286190
2196.386719	-35.826603
2239.453125	-37.452152
2282.519531	-39.969460
2325.585938	-39.843620
2368.652344	-39.214287
2411.718750	-39.415535
2454.785156	-38.907047
2497.851562	-38.584148
2540.917969	-39.527187
2583.984375	-41.593750
2627.050781	-39.719082
2670.117188	-36.707024
2713.183594	-36.984962
2756.250000	-40.901577
2799.316406	-43.756145
2842.382812	-43.608643
2885.449219	-43.764008
2928.515625	-43.930717
2971.582031	-42.371799
3014.648438	-41.506310
3057.714844	-43.820930
3100.781250	-46.329163
3143.847656	-44.695213
3186.914062	-42.267303
3229.980469	-42.814110
3273.046875	-45.642960
3316.113281	-45.339813
3359.179688	-42.770142
3402.246094	-42.152279
3445.312500	-43.192398
3488.378906	-44.379585
3531.445312	-43.312313
3574.511719	-43.028446
3617.578125	-43.789333
3660.644531	-44.380512
3703.710938	-44.631927
3746.777344	-45.635925
3789.843750	-46.761463
3832.910156	-46.176289
3875.976562	-44.234550
3919.042969	-45.702099
3962.109375	-44.692802
4005.175781	-42.946465
4048.242188	-43.638172
4091.308594	-46.688988
4134.375000	-48.231785
4177.441406	-48.514187
4220.507812	-47.479614
4263.574219	-46.543312
4306.640625	-46.806828
4349.707031	-47.531654
4392.773438	-48.990364
4435.839844	-48.843754
4478.906250	-48.279385
4521.972656	-48.314312
4565.039062	-49.075325
4608.105469	-50.520012
4651.171875	-51.055275
4694.238281	-50.867485
4737.304688	-48.784237
4780.371094	-48.794479
4823.437500	-50.089970
4866.503906	-50.586292
4909.570312	-49.277279
4952.636719	-49.763798
4995.703125	-48.991505
5038.769531	-47.862919
5081.835938	-49.911987
5124.902344	-52.726959
5167.968750	-52.927731
5211.035156	-53.022842
5254.101562	-52.250225
5297.167969	-50.845879
5340.234375	-49.864067
5383.300781	-50.643097
5426.367188	-53.758289
5469.433594	-54.106991
5512.500000	-51.608658
5555.566406	-51.223736
5598.632812	-52.667347
5641.699219	-52.602928
5684.765625	-52.771675
5727.832031	-53.231415
5770.898438	-52.734940
5813.964844	-51.759285
5857.031250	-52.190456
5900.097656	-52.506104
5943.164062	-52.844376
5986.230469	-52.215885
6029.296875	-50.001831
6072.363281	-51.424854
6115.429688	-54.112541
6158.496094	-55.495159
6201.562500	-55.905399
6244.628906	-55.111012
6287.695312	-55.440796
6330.761719	-55.826115
6373.828125	-55.568680
6416.894531	-55.923271
6459.960938	-56.708408
6503.027344	-55.830006
6546.093750	-55.293884
6589.160156	-56.437511
6632.226562	-56.822311
6675.292969	-56.888569
6718.359375	-56.336529
6761.425781	-56.673237
6804.492188	-57.518520
6847.558594	-57.876060
6890.625000	-57.406147
6933.691406	-56.359306
6976.757812	-55.771595
7019.824219	-55.312370
7062.890625	-55.527271
7105.957031	-56.925945
7149.023438	-57.336620
7192.089844	-55.702202
7235.156250	-55.545933
7278.222656	-56.561920
7321.289062	-56.688950
7364.355469	-56.409546
7407.421875	-56.157089
7450.488281	-56.674660
7493.554688	-57.042526
7536.621094	-56.553715
7579.687500	-56.471981
7622.753906	-57.422714
7665.820312	-58.048901
7708.886719	-56.321033
7751.953125	-54.236961
7795.019531	-56.320873
7838.085938	-58.098335
7881.152344	-57.258568
7924.218750	-57.832527
7967.285156	-58.470150
8010.351562	-58.301052
8053.417969	-58.389748
8096.484375	-59.039101
8139.550781	-58.819775
8182.617188	-58.958035
8225.683594	-60.337883
8268.750000	-61.599804
8311.816406	-61.825691
8354.882812	-61.878532
8397.949219	-61.800816
8441.015625	-61.809101
8484.082031	-62.023396
8527.148438	-62.163898
8570.214844	-61.726978
8613.281250	-59.591599
8656.347656	-60.426819
8699.414062	-63.015656
8742.480469	-63.301674
8785.546875	-63.520748
8828.613281	-63.610661
8871.679688	-62.749958
8914.746094	-61.018089
8957.812500	-62.459255
9000.878906	-63.872135
9043.945312	-64.081177
9087.011719	-64.113640
9130.078125	-63.564495
9173.144531	-62.981861
9216.210938	-63.421173
9259.277344	-63.868378
9302.343750	-63.685051
9345.410156	-64.735786
9388.476562	-64.452232
9431.542969	-64.422112
9474.609375	-64.422096
9517.675781	-64.109398
9560.742188	-64.917618
9603.808594	-66.072105
9646.875000	-66.772194
9689.941406	-67.145737
9733.007812	-66.616211
9776.074219	-66.650795
9819.140625	-67.375656
9862.207031	-67.615738
9905.273438	-67.654549
9948.339844	-67.567139
9991.406250	-67.278320
10034.472656	-67.774788
10077.539062	-68.276665
10120.605469	-68.790642
10163.671875	-69.419228
10206.738281	-69.378883
10249.804688	-69.225166
10292.871094	-69.228798
10335.937500	-69.674057
10379.003906	-70.369751
10422.070312	-70.599289
10465.136719	-70.679718
10508.203125	-70.217064
10551.269531	-70.412437
10594.335938	-70.252472
10637.402344	-69.085304
10680.468750	-69.051170
10723.535156	-69.375931
10766.601562	-69.508339
10809.667969	-69.671555
10852.734375	-69.671227
10895.800781	-69.960579
10938.867188	-70.059036
10981.933594	-69.872559
11025.000000	-69.875015
11068.066406	-70.090019
11111.132812	-70.134048
11154.199219	-69.921112
11197.265625	-69.220245
11240.332031	-68.967461
11283.398438	-68.215195
11326.464844	-67.068741
11369.531250	-68.046738
11412.597656	-70.209198
11455.664062	-71.596214
11498.730469	-71.650841
11541.796875	-71.193451
11584.863281	-70.809593
11627.929688	-70.460808
11670.996094	-70.332977
11714.062500	-71.188530
11757.128906	-72.000420
11800.195312	-71.107956
11843.261719	-70.330856
11886.328125	-70.148628
11929.394531	-70.065613
11972.460938	-69.513420
12015.527344	-68.542030
12058.593750	-67.660866
12101.660156	-68.191734
12144.726562	-69.470375
12187.792969	-70.722588
12230.859375	-71.448029
12273.925781	-71.372643
12316.992188	-71.605438
12360.058594	-72.510841
12403.125000	-73.012329
12446.191406	-73.453819
12489.257812	-73.268974
12532.324219	-72.808815
12575.390625	-73.224724
12618.457031	-73.630417
12661.523438	-74.207298
12704.589844	-74.496040
12747.656250	-74.630348
12790.722656	-75.115242
12833.789062	-75.786713
12876.855469	-75.956596
12919.921875	-76.316612
12962.988281	-76.799065
13006.054688	-76.959541
13049.121094	-77.004639
13092.187500	-77.525269
13135.253906	-78.486450
13178.320312	-78.515381
13221.386719	-78.772636
13264.453125	-79.930283
13307.519531	-80.542542
13350.585938	-80.497910
13393.652344	-79.653145
13436.718750	-79.650948
13479.785156	-79.392151
13522.851562	-79.622391
13565.917969	-79.383972
13608.984375	-79.219910
13652.050781	-80.719780
13695.117188	-81.263878
13738.183594	-82.702530
13781.250000	-82.954025
13824.316406	-83.205460
13867.382812	-83.390305
13910.449219	-83.437851
13953.515625	-84.835060
13996.582031	-85.672729
14039.648438	-85.793289
14082.714844	-85.023979
14125.781250	-84.772285
14168.847656	-85.076591
14211.914062	-85.714172
14254.980469	-86.717819
14298.046875	-86.255974
14341.113281	-86.937561
14384.179688	-87.089607
14427.246094	-87.675728
14470.312500	-86.632690
14513.378906	-85.209808
14556.445312	-85.296768
14599.511719	-84.086052
14642.578125	-86.046249
14685.644531	-86.854774
14728.710938	-86.810219
14771.777344	-85.468956
14814.843750	-84.974983
14857.910156	-86.305969
14900.976562	-86.160973
14944.042969	-86.893486
14987.109375	-86.425949
15030.175781	-87.384995
15073.242188	-86.999832
15116.308594	-86.545189
15159.375000	-88.347298
15202.441406	-87.812546
15245.507812	-88.969093
15288.574219	-88.304222
15331.640625	-88.655945
15374.707031	-88.952278
15417.773438	-88.651573
15460.839844	-88.588150
15503.906250	-87.836983
15546.972656	-88.488945
15590.039062	-86.397255
15633.105469	-87.099152
15676.171875	-87.620720
15719.238281	-87.788712
15762.304688	-89.502724
15805.371094	-89.867432
15848.437500	-90.690308
15891.503906	-91.595665
15934.570312	-90.426682
15977.636719	-89.040825
16020.703125	-88.828117
16063.769531	-90.188614
16106.835938	-89.828423
16149.902344	-91.230652
16192.968750	-90.387932
16236.035156	-90.721512
16279.101562	-88.718681
16322.167969	-89.628899
16365.234375	-93.039375
16408.300781	-92.073441
16451.367188	-92.543480
16494.433594	-90.840141
16537.500000	-93.273186
16580.566406	-92.111443
16623.632812	-92.438919
16666.699219	-92.067596
16709.765625	-89.579781
16752.832031	-92.224052
16795.898438	-90.209892
16838.964844	-91.318787
16882.031250	-87.113991
16925.097656	-88.517487
16968.164062	-91.701332
17011.230469	-89.146202
17054.296875	-91.071152
17097.363281	-89.703476
17140.429688	-91.940926
17183.496094	-93.268478
17226.562500	-93.293785
17269.628906	-91.941696
17312.695312	-90.938499
17355.761719	-92.163116
17398.828125	-89.148949
17441.894531	-92.407631
17484.960938	-90.081207
17528.027344	-90.117386
17571.093750	-89.383118
17614.160156	-88.186371
17657.226562	-91.096703
17700.292969	-88.131660
17743.359375	-89.799004
17786.425781	-88.080223
17829.492188	-90.060966
17872.558594	-92.397873
17915.625000	-91.711235
17958.691406	-94.249481
18001.757812	-91.465836
18044.824219	-93.320839
18087.890625	-91.479225
18130.957031	-92.268478
18174.023438	-91.309486
18217.089844	-90.641594
18260.156250	-90.392975
18303.222656	-86.899368
18346.289062	-89.801712
18389.355469	-87.587334
18432.421875	-89.743591
18475.488281	-92.161781
18518.554688	-91.709145
18561.621094	-92.625313
18604.687500	-91.597389
18647.753906	-94.104477
18690.820312	-91.300835
18733.886719	-92.123672
18776.953125	-91.328766
18820.019531	-90.835533
18863.085938	-91.970810
18906.152344	-90.409569
18949.218750	-91.762711
18992.285156	-87.654243
19035.351562	-90.309738
19078.417969	-88.922592
19121.484375	-88.950859
19164.550781	-92.555702
19207.617188	-91.068718
19250.683594	-92.153717
19293.750000	-87.573631
19336.816406	-90.638893
19379.882812	-90.979034
19422.949219	-91.155624
19466.015625	-92.273720
19509.082031	-91.037971
19552.148438	-93.497528
19595.214844	-93.087082
19638.281250	-93.614716
19681.347656	-90.493721
19724.414062	-91.043465
19767.480469	-89.428360
19810.546875	-87.571426
19853.613281	-92.533005
19896.679688	-90.395180
19939.746094	-93.365204
19982.812500	-92.266190
20025.878906	-92.594688
20068.945312	-91.949043
20112.011719	-90.509277
20155.078125	-93.011703
20198.144531	-95.436249
20241.210938	-94.079826
20284.277344	-89.059700
20327.343750	-90.830841
20370.410156	-91.451691
20413.476562	-89.372955
20456.542969	-93.998207
20499.609375	-93.307632
20542.675781	-96.209602
20585.742188	-93.714516
20628.808594	-95.326553
20671.875000	-95.263832
20714.941406	-93.673309
20758.007812	-97.124420
20801.074219	-94.129478
20844.140625	-97.025131
20887.207031	-93.950294
20930.273438	-95.551102
20973.339844	-95.448280
21016.406250	-94.893036
21059.472656	-98.332207
21102.539062	-94.619034
21145.605469	-98.015442
21188.671875	-93.349297
21231.738281	-95.566971
21274.804688	-96.033493
21317.871094	-95.386871
21360.937500	-101.575142
21404.003906	-100.798065
21447.070312	-98.660271
21490.136719	-90.720673
21533.203125	-93.779350
21576.269531	-97.934784
21619.335938	-97.375122
21662.402344	-100.346489
21705.468750	-97.180672
21748.535156	-101.393715
21791.601562	-97.290237
21834.667969	-100.280655
21877.734375	-97.770798
21920.800781	-97.466774
21963.867188	-99.195335
22006.933594	-96.124374
