Frequency (Hz)	Level (dB)
43.066406	-18.976688
86.132812	-14.108533
129.199219	-16.393572
172.265625	-20.165331
215.332031	-21.402557
258.398438	-21.786177
301.464844	-19.102995
344.531250	-20.332632
387.597656	-19.732611
430.664062	-19.990189
473.730469	-20.234135
516.796875	-20.736370
559.863281	-24.596836
602.929688	-26.217335
645.996094	-28.652145
689.062500	-28.967867
732.128906	-31.686354
775.195312	-27.884382
818.261719	-24.508966
861.328125	-26.734722
904.394531	-22.399700
947.460938	-22.397661
990.527344	-20.124773
1033.593750	-18.585993
1076.660156	-21.466431
1119.726562	-23.633228
1162.792969	-22.142357
1205.859375	-19.362270
1248.925781	-21.051056
1291.992188	-28.900671
1335.058594	-31.649687
1378.125000	-29.781256
1421.191406	-31.253853
1464.257812	-29.930685
1507.324219	-26.240841
1550.390625	-25.437267
1593.457031	-27.577742
1636.523438	-27.003931
1679.589844	-29.132524
1722.656250	-30.871405
1765.722656	-30.437088
1808.789062	-30.008564
1851.855469	-30.485926
1894.921875	-35.282345
1937.988281	-38.160988
1981.054688	-36.950806
2024.121094	-31.498264
2067.187500	-30.104013
2110.253906	-34.105141
2153.320312	-36.269470
2196.386719	-35.225586
2239.453125	-37.963123
2282.519531	-38.318565
2325.585938	-36.194458
2368.652344	-35.747906
2411.718750	-32.912521
2454.785156	-30.871727
2497.851562	-32.779636
2540.917969	-36.206947
2583.984375	-39.192867
2627.050781	-41.014416
2670.117188	-39.843712
2713.183594	-36.722919
2756.250000	-35.277325
2799.316406	-37.022858
2842.382812	-39.323269
2885.449219	-39.000935
2928.515625	-38.136494
2971.582031	-36.974766
3014.648438	-35.493729
3057.714844	-34.298050
3100.781250	-34.700699
3143.847656	-37.243195
3186.914062	-40.334400
3229.980469	-39.130871
3273.046875	-36.484921
3316.113281	-36.285881
3359.179688	-38.301472
3402.246094	-38.816750
3445.312500	-37.364044
3488.378906	-37.718460
3531.445312	-37.874474
3574.511719	-37.332630
3617.578125	-37.609715
3660.644531	-36.919128
3703.710938	-36.645313
3746.777344	-39.112682
3789.843750	-42.239220
3832.910156	-43.810390
3875.976562	-44.419373
3919.042969	-45.864689
3962.109375	-47.521004
4005.175781	-45.952969
4048.242188	-44.055897
4091.308594	-41.978947
4134.375000	-40.684322
4177.441406	-41.721802
4220.507812	-42.930069
4263.574219	-42.949932
4306.640625	-42.503979
4349.707031	-42.475189
4392.773438	-42.930328
4435.839844	-44.027672
4478.906250	-44.698174
4521.972656	-44.824551
4565.039062	-44.489983
4608.105469	-43.543125
4651.171875	-42.536285
4694.238281	-41.789516
4737.304688	-41.653801
4780.371094	-41.427113
4823.437500	-40.996685
4866.503906	-40.830360
4909.570312	-40.558693
4952.636719	-40.742653
4995.703125	-41.890266
5038.769531	-44.363934
5081.835938	-45.247311
5124.902344	-44.728516
5167.968750	-45.054016
5211.035156	-45.866207
5254.101562	-46.844986
5297.167969	-47.485481
5340.234375	-47.365047
5383.300781	-46.645893
5426.367188	-45.172729
5469.433594	-45.133392
5512.500000	-45.677273
5555.566406	-46.097492
5598.632812	-47.365669
5641.699219	-46.344353
5684.765625	-45.581154
5727.832031	-45.671734
5770.898438	-47.315201
5813.964844	-49.502247
5857.031250	-50.314106
5900.097656	-50.211243
5943.164062	-50.010715
5986.230469	-49.410938
6029.296875	-48.633743
6072.363281	-48.324711
6115.429688	-47.329311
6158.496094	-46.253906
6201.562500	-45.468849
6244.628906	-45.652241
6287.695312	-47.364231
6330.761719	-48.588383
6373.828125	-48.742172
6416.894531	-46.107689
6459.960938	-43.663738
6503.027344	-44.975536
6546.093750	-47.467827
6589.160156	-47.346310
6632.226562	-47.456066
6675.292969	-47.691879
6718.359375	-47.172844
6761.425781	-47.600929
6804.492188	-48.159920
6847.558594	-48.139969
6890.625000	-47.738029
6933.691406	-47.233139
6976.757812	-46.885365
7019.824219	-46.787540
7062.890625	-47.147888
7105.957031	-46.977722
7149.023438	-46.204109
7192.089844	-43.791504
7235.156250	-43.268539
7278.222656	-45.786194
7321.289062	-46.931274
7364.355469	-46.971169
7407.421875	-46.621811
7450.488281	-46.791496
7493.554688	-47.485180
7536.621094	-47.694023
7579.687500	-46.903713
7622.753906	-44.965424
7665.820312	-43.819408
7708.886719	-45.193508
7751.953125	-46.340542
7795.019531	-46.156944
7838.085938	-45.971058
7881.152344	-45.919571
7924.218750	-45.605511
7967.285156	-45.891979
8010.351562	-45.215893
8053.417969	-43.391331
8096.484375	-43.262264
8139.550781	-45.163715
8182.617188	-46.400478
8225.683594	-46.582024
8268.750000	-46.551071
8311.816406	-46.999695
8354.882812	-47.477715
8397.949219	-48.167023
8441.015625	-48.202194
8484.082031	-46.922554
8527.148438	-44.358051
8570.214844	-44.045231
8613.281250	-46.472195
8656.347656	-47.855270
8699.414062	-48.748146
8742.480469	-48.879791
8785.546875	-48.889633
8828.613281	-49.880161
8871.679688	-50.879524
8914.746094	-51.013199
8957.812500	-51.435577
9000.878906	-51.854176
9043.945312	-52.093559
9087.011719	-52.160725
9130.078125	-52.496605
9173.144531	-53.149403
9216.210938	-53.558857
9259.277344	-53.436909
9302.343750	-53.419735
9345.410156	-53.645882
9388.476562	-53.894100
9431.542969	-53.987663
9474.609375	-54.579712
9517.675781	-55.094563
9560.742188	-55.068703
9603.808594	-55.010284
9646.875000	-54.879124
9689.941406	-54.834187
9733.007812	-55.322090
9776.074219	-55.645306
9819.140625	-56.041981
9862.207031	-56.260090
9905.273438	-56.283394
9948.339844	-56.608879
9991.406250	-57.099529
10034.472656	-57.569553
10077.539062	-57.713448
10120.605469	-57.454315
10163.671875	-57.412113
10206.738281	-57.761684
10249.804688	-57.791672
10292.871094	-57.408867
10335.937500	-57.691334
10379.003906	-57.799965
10422.070312	-57.804813
10465.136719	-58.251476
10508.203125	-58.244717
10551.269531	-58.358551
10594.335938	-58.592354
10637.402344	-59.022491
10680.468750	-59.469082
10723.535156	-59.774570
10766.601562	-59.928249
10809.667969	-60.001263
10852.734375	-59.865658
10895.800781	-59.619907
10938.867188	-59.682133
10981.933594	-59.823490
11025.000000	-59.461933
11068.066406	-59.259315
11111.132812	-59.060871
11154.199219	-59.119167
11197.265625	-59.217331
11240.332031	-59.628036
11283.398438	-60.142879
11326.464844	-60.473881
11369.531250	-60.493935
11412.597656	-60.408997
11455.664062	-60.437119
11498.730469	-60.839882
11541.796875	-61.233444
11584.863281	-61.390095
11627.929688	-61.505627
11670.996094	-61.685555
11714.062500	-62.060051
11757.128906	-62.102329
11800.195312	-62.216473
11843.261719	-62.332142
11886.328125	-62.947010
11929.394531	-63.301533
11972.460938	-63.493267
12015.527344	-63.257877
12058.593750	-63.148781
12101.660156	-63.191391
12144.726562	-63.221893
12187.792969	-63.209694
12230.859375	-63.202717
12273.925781	-63.155636
12316.992188	-63.107796
12360.058594	-62.858841
12403.125000	-62.757942
12446.191406	-63.074829
12489.257812	-63.359211
12532.324219	-63.593876
12575.390625	-63.628235
12618.457031	-63.684235
12661.523438	-63.248753
12704.589844	-63.141991
12747.656250	-63.339634
12790.722656	-63.503628
12833.789062	-63.567032
12876.855469	-63.331932
12919.921875	-63.206688
12962.988281	-63.001232
13006.054688	-63.325787
13049.121094	-63.791477
13092.187500	-64.082443
13135.253906	-64.076866
13178.320312	-64.061874
13221.386719	-64.167068
13264.453125	-64.326370
13307.519531	-64.669586
13350.585938	-64.999489
13393.652344	-65.092918
13436.718750	-65.113419
13479.785156	-65.052536
13522.851562	-65.117455
13565.917969	-65.268280
13608.984375	-65.294426
13652.050781	-65.367920
13695.117188	-65.574158
13738.183594	-65.723373
13781.250000	-65.806305
13824.316406	-65.975395
13867.382812	-66.176086
13910.449219	-66.180267
13953.515625	-66.392647
13996.582031	-66.667236
14039.648438	-66.770241
14082.714844	-66.734528
14125.781250	-66.774414
14168.847656	-66.938683
14211.914062	-66.652527
14254.980469	-66.681259
14298.046875	-66.626839
14341.113281	-66.532333
14384.179688	-66.516594
14427.246094	-66.608391
14470.312500	-66.721130
14513.378906	-66.876198
14556.445312	-67.035553
14599.511719	-67.195190
14642.578125	-67.334915
14685.644531	-67.291908
14728.710938	-67.186829
14771.777344	-67.317802
14814.843750	-67.383713
14857.910156	-67.495331
14900.976562	-67.585999
14944.042969	-67.496162
14987.109375	-67.511772
15030.175781	-67.896858
15073.242188	-68.151512
15116.308594	-68.158394
15159.375000	-68.299492
15202.441406	-68.604790
15245.507812	-68.615906
15288.574219	-68.439240
15331.640625	-68.149872
15374.707031	-68.514816
15417.773438	-68.685127
15460.839844	-68.661728
15503.906250	-68.500267
15546.972656	-68.144913
15590.039062	-64.570816
15633.105469	-59.676979
15676.171875	-59.933693
15719.238281	-65.498222
15762.304688	-73.956856
15805.371094	-83.339287
15848.437500	-87.998947
15891.503906	-93.888359
15934.570312	-95.937935
15977.636719	-96.216812
16020.703125	-96.074379
16063.769531	-95.527863
16106.835938	-94.748642
16149.902344	-94.071640
16192.968750	-93.640167
16236.035156	-93.406746
16279.101562	-93.228317
16322.167969	-93.030396
16365.234375	-93.111732
16408.300781	-93.906502
16451.367188	-95.962074
16494.433594	-99.804031
16537.500000	-104.683250
16580.566406	-105.797470
16623.632812	-105.903450
16666.699219	-108.674225
16709.765625	-113.654106
16752.832031	-115.115326
16795.898438	-115.786781
16838.964844	-119.625107
16882.031250	-127.727791
16925.097656	-131.242599
16968.164062	-128.834869
17011.230469	-128.670258
17054.296875	-129.198944
17097.363281	-127.349564
17140.429688	-126.779549
17183.496094	-128.690735
17226.562500	-132.433105
17269.628906	-132.299072
17312.695312	-131.559433
17355.761719	-132.196732
17398.828125	-132.662125
17441.894531	-131.607330
17484.960938	-131.086014
17528.027344	-131.884750
17571.093750	-133.521393
17614.160156	-132.735718
17657.226562	-131.904602
17700.292969	-132.874191
17743.359375	-133.644150
17786.425781	-133.041199
17829.492188	-132.519272
17872.558594	-133.076477
17915.625000	-134.100845
17958.691406	-132.742233
18001.757812	-132.251892
18044.824219	-133.496872
18087.890625	-134.098755
18130.957031	-133.365601
18174.023438	-132.724854
18217.089844	-133.380920
18260.156250	-134.281204
18303.222656	-133.566101
18346.289062	-133.168060
18389.355469	-133.840942
18432.421875	-134.282135
18475.488281	-133.987030
18518.554688	-133.841187
18561.621094	-134.179886
18604.687500	-134.794128
18647.753906	-134.164307
18690.820312	-133.692566
18733.886719	-134.493607
18776.953125	-134.979324
18820.019531	-134.634949
18863.085938	-134.312607
18906.152344	-134.498276
18949.218750	-134.981049
18992.285156	-134.288773
19035.351562	-133.823563
19078.417969	-134.316452
19121.484375	-134.683197
19164.550781	-134.559601
19207.617188	-134.333817
19250.683594	-134.695587
19293.750000	-135.058533
19336.816406	-134.557083
19379.882812	-134.227005
19422.949219	-134.756226
19466.015625	-135.092117
19509.082031	-134.980209
19552.148438	-134.962006
19595.214844	-135.045990
19638.281250	-135.213623
19681.347656	-134.684479
19724.414062	-134.592850
19767.480469	-134.916718
19810.546875	-134.889435
19853.613281	-134.977402
19896.679688	-134.827133
19939.746094	-134.932953
19982.812500	-134.875946
20025.878906	-134.716507
20068.945312	-134.880325
20112.011719	-134.932373
20155.078125	-134.793411
20198.144531	-133.748886
20241.210938	-132.685028
20284.277344	-133.485123
20327.343750	-134.831863
20370.410156	-134.750107
20413.476562	-134.264343
20456.542969	-134.657883
20499.609375	-134.828278
20542.675781	-134.718872
20585.742188	-134.979218
20628.808594	-135.211105
20671.875000	-134.501740
20714.941406	-133.513504
20758.007812	-134.121277
20801.074219	-135.379608
20844.140625	-136.015823
20887.207031	-136.709824
20930.273438	-137.661697
20973.339844	-138.392456
21016.406250	-139.293747
21059.472656	-140.604156
21102.539062	-141.707474
21145.605469	-142.895111
21188.671875	-145.375595
21231.738281	-147.739105
21274.804688	-150.013351
21317.871094	-153.064636
21360.937500	-155.774002
21404.003906	-158.576019
21447.070312	-161.720200
21490.136719	-164.115387
21533.203125	-163.934219
21576.269531	-163.992706
21619.335938	-164.484879
21662.402344	-163.975433
21705.468750	-164.838425
21748.535156	-163.683365
21791.601562	-165.802414
21834.667969	-165.585571
21877.734375	-164.630768
21920.800781	-161.339386
21963.867188	-158.938751
22006.933594	-163.403946
