Frequency (Hz)	Level (dB)
43.066406	-20.703588
86.132812	-15.584991
129.199219	-17.189602
172.265625	-20.285255
215.332031	-21.427834
258.398438	-21.647163
301.464844	-18.878670
344.531250	-20.143476
387.597656	-19.652304
430.664062	-20.030973
473.730469	-20.471350
516.796875	-21.004120
559.863281	-24.730597
602.929688	-26.417166
645.996094	-28.924822
689.062500	-29.236809
732.128906	-31.864019
775.195312	-28.065035
818.261719	-24.739645
861.328125	-26.819304
904.394531	-22.329594
947.460938	-22.386307
990.527344	-20.294071
1033.593750	-18.713877
1076.660156	-21.424683
1119.726562	-23.546537
1162.792969	-22.221739
1205.859375	-19.432796
1248.925781	-21.075787
1291.992188	-28.895449
1335.058594	-31.626076
1378.125000	-29.784897
1421.191406	-31.224039
1464.257812	-29.854532
1507.324219	-26.185581
1550.390625	-25.439817
1593.457031	-27.546753
1636.523438	-26.882666
1679.589844	-28.997793
1722.656250	-30.799906
1765.722656	-30.366823
1808.789062	-29.953541
1851.855469	-30.449112
1894.921875	-35.198605
1937.988281	-38.042561
1981.054688	-36.890560
2024.121094	-31.458645
2067.187500	-30.091152
2110.253906	-34.126934
2153.320312	-36.269894
2196.386719	-35.291180
2239.453125	-38.070690
2282.519531	-38.442059
2325.585938	-36.495243
2368.652344	-36.228222
2411.718750	-33.361435
2454.785156	-31.197664
2497.851562	-32.944160
2540.917969	-36.235565
2583.984375	-39.056774
2627.050781	-40.742470
2670.117188	-39.665970
2713.183594	-36.648533
2756.250000	-35.224373
2799.316406	-36.965897
2842.382812	-39.226299
2885.449219	-38.923931
2928.515625	-38.201176
2971.582031	-37.084915
3014.648438	-35.549305
3057.714844	-34.344894
3100.781250	-34.790565
3143.847656	-37.327957
3186.914062	-40.345337
3229.980469	-39.099339
3273.046875	-36.423840
3316.113281	-36.158531
3359.179688	-38.084198
3402.246094	-38.652367
3445.312500	-37.298763
3488.378906	-37.706715
3531.445312	-37.910782
3574.511719	-37.409431
3617.578125	-37.641979
3660.644531	-36.850250
3703.710938	-36.555347
3746.777344	-38.998440
3789.843750	-42.123795
3832.910156	-43.704025
3875.976562	-44.313835
3919.042969	-45.718307
3962.109375	-47.272511
4005.175781	-45.613491
4048.242188	-43.688145
4091.308594	-41.696564
4134.375000	-40.412327
4177.441406	-41.414955
4220.507812	-42.606308
4263.574219	-42.567272
4306.640625	-42.062084
4349.707031	-42.069313
4392.773438	-42.582188
4435.839844	-43.657696
4478.906250	-44.382351
4521.972656	-44.567471
4565.039062	-44.236160
4608.105469	-43.306526
4651.171875	-42.351997
4694.238281	-41.689125
4737.304688	-41.593864
4780.371094	-41.392597
4823.437500	-40.938412
4866.503906	-40.732227
4909.570312	-40.439442
4952.636719	-40.623425
4995.703125	-41.844852
5038.769531	-44.291275
5081.835938	-45.015060
5124.902344	-44.490162
5167.968750	-44.830708
5211.035156	-45.597126
5254.101562	-46.466911
5297.167969	-47.031532
5340.234375	-46.893257
5383.300781	-46.306770
5426.367188	-44.934464
5469.433594	-44.862873
5512.500000	-45.334415
5555.566406	-45.622822
5598.632812	-46.788219
5641.699219	-46.043564
5684.765625	-45.538250
5727.832031	-45.695499
5770.898438	-47.262192
5813.964844	-49.226944
5857.031250	-49.866024
5900.097656	-49.745560
5943.164062	-49.522854
5986.230469	-48.971363
6029.296875	-48.213291
6072.363281	-47.883171
6115.429688	-47.002884
6158.496094	-46.027294
6201.562500	-45.267822
6244.628906	-45.362625
6287.695312	-46.910183
6330.761719	-48.032082
6373.828125	-48.301575
6416.894531	-46.041031
6459.960938	-43.721272
6503.027344	-44.966457
6546.093750	-47.201286
6589.160156	-46.985359
6632.226562	-47.070084
6675.292969	-47.361080
6718.359375	-46.972866
6761.425781	-47.373814
6804.492188	-47.841446
6847.558594	-47.801762
6890.625000	-47.501488
6933.691406	-47.043140
6976.757812	-46.723274
7019.824219	-46.626461
7062.890625	-46.910030
7105.957031	-46.760872
7149.023438	-46.132683
7192.089844	-43.911625
7235.156250	-43.380871
7278.222656	-45.696415
7321.289062	-46.672977
7364.355469	-46.710861
7407.421875	-46.426048
7450.488281	-46.610432
7493.554688	-47.299652
7536.621094	-47.457523
7579.687500	-46.709999
7622.753906	-44.945034
7665.820312	-43.899189
7708.886719	-45.170349
7751.953125	-46.262932
7795.019531	-46.128334
7838.085938	-45.905289
7881.152344	-45.898060
7924.218750	-45.693417
7967.285156	-45.823570
8010.351562	-45.137512
8053.417969	-43.461239
8096.484375	-43.389549
8139.550781	-45.143764
8182.617188	-46.295849
8225.683594	-46.479961
8268.750000	-46.417103
8311.816406	-46.813023
8354.882812	-47.230709
8397.949219	-47.795094
8441.015625	-47.845013
8484.082031	-46.784542
8527.148438	-44.472748
8570.214844	-44.170303
8613.281250	-46.342758
8656.347656	-47.584446
8699.414062	-48.464775
8742.480469	-48.627300
8785.546875	-48.655815
8828.613281	-49.549961
8871.679688	-50.524143
8914.746094	-50.725830
8957.812500	-51.076488
9000.878906	-51.348679
9043.945312	-51.450195
9087.011719	-51.521282
9130.078125	-51.865471
9173.144531	-52.498783
9216.210938	-52.983807
9259.277344	-52.900002
9302.343750	-52.841015
9345.410156	-52.912548
9388.476562	-53.077877
9431.542969	-53.238476
9474.609375	-53.869820
9517.675781	-54.353153
9560.742188	-54.276848
9603.808594	-54.220707
9646.875000	-54.124771
9689.941406	-54.036701
9733.007812	-54.297714
9776.074219	-54.527336
9819.140625	-54.866455
9862.207031	-55.085808
9905.273438	-55.268951
9948.339844	-55.664135
9991.406250	-56.102707
10034.472656	-56.446735
10077.539062	-56.371071
10120.605469	-56.018909
10163.671875	-56.005478
10206.738281	-56.528782
10249.804688	-56.791492
10292.871094	-56.543324
10335.937500	-56.604095
10379.003906	-56.481133
10422.070312	-56.411900
10465.136719	-56.782249
10508.203125	-56.826008
10551.269531	-56.929325
10594.335938	-57.119698
10637.402344	-57.606331
10680.468750	-58.218960
10723.535156	-58.531353
10766.601562	-58.447224
10809.667969	-58.234642
10852.734375	-58.097309
10895.800781	-58.232353
10938.867188	-58.616070
10981.933594	-58.701519
11025.000000	-58.202820
11068.066406	-57.793743
11111.132812	-57.468384
11154.199219	-57.523983
11197.265625	-57.684906
11240.332031	-58.030117
11283.398438	-58.419765
11326.464844	-58.630093
11369.531250	-58.630493
11412.597656	-58.647270
11455.664062	-58.737381
11498.730469	-59.168392
11541.796875	-59.473568
11584.863281	-59.552361
11627.929688	-59.691650
11670.996094	-59.969620
11714.062500	-60.266144
11757.128906	-60.122131
11800.195312	-60.052399
11843.261719	-60.040077
11886.328125	-60.663124
11929.394531	-61.261658
11972.460938	-61.660648
12015.527344	-61.531021
12058.593750	-61.180561
12101.660156	-61.063992
12144.726562	-61.015728
12187.792969	-61.071770
12230.859375	-61.182827
12273.925781	-61.320965
12316.992188	-61.302750
12360.058594	-61.162285
12403.125000	-61.224350
12446.191406	-61.337391
12489.257812	-61.106247
12532.324219	-61.108452
12575.390625	-61.255939
12618.457031	-61.522907
12661.523438	-61.452808
12704.589844	-61.586758
12747.656250	-61.721840
12790.722656	-61.604923
12833.789062	-61.401749
12876.855469	-61.127151
12919.921875	-61.211941
12962.988281	-61.317333
13006.054688	-61.704090
13049.121094	-61.840874
13092.187500	-61.716221
13135.253906	-61.732483
13178.320312	-61.979477
13221.386719	-62.194641
13264.453125	-62.331036
13307.519531	-62.535564
13350.585938	-62.886494
13393.652344	-63.169437
13436.718750	-63.225796
13479.785156	-62.963600
13522.851562	-62.763981
13565.917969	-62.688160
13608.984375	-62.675392
13652.050781	-62.909958
13695.117188	-63.346638
13738.183594	-63.349758
13781.250000	-63.182194
13824.316406	-63.052227
13867.382812	-63.083366
13910.449219	-63.257545
13953.515625	-63.615601
13996.582031	-64.021118
14039.648438	-64.014832
14082.714844	-64.021034
14125.781250	-64.182335
14168.847656	-64.386703
14211.914062	-63.999260
14254.980469	-63.808853
14298.046875	-63.636986
14341.113281	-63.915806
14384.179688	-64.393486
14427.246094	-64.765457
14470.312500	-64.924164
14513.378906	-64.966743
14556.445312	-64.433411
14599.511719	-63.983677
14642.578125	-64.462738
14685.644531	-64.931305
14728.710938	-65.160027
14771.777344	-65.497635
14814.843750	-65.445244
14857.910156	-65.178398
14900.976562	-65.121078
14944.042969	-65.041328
14987.109375	-65.418114
15030.175781	-65.917061
15073.242188	-65.909317
15116.308594	-65.916634
15159.375000	-66.372536
15202.441406	-66.431480
15245.507812	-65.563484
15288.574219	-64.636375
15331.640625	-64.693428
15374.707031	-65.468948
15417.773438	-66.019272
15460.839844	-66.404060
15503.906250	-67.076912
15546.972656	-68.183678
15590.039062	-67.596458
15633.105469	-63.881310
15676.171875	-63.266315
15719.238281	-65.246040
15762.304688	-68.550583
15805.371094	-70.318062
15848.437500	-72.606567
15891.503906	-73.552612
15934.570312	-73.932816
15977.636719	-71.317932
16020.703125	-69.924820
16063.769531	-71.324303
16106.835938	-72.347893
16149.902344	-73.737221
16192.968750	-73.047310
16236.035156	-73.005516
16279.101562	-72.438057
16322.167969	-72.650322
16365.234375	-74.320259
16408.300781	-75.965012
16451.367188	-76.621773
16494.433594	-76.821747
16537.500000	-76.988167
16580.566406	-77.600029
16623.632812	-77.043373
16666.699219	-76.363358
16709.765625	-76.129936
16752.832031	-76.069611
16795.898438	-76.236580
16838.964844	-78.619461
16882.031250	-77.813232
16925.097656	-75.703690
16968.164062	-75.722092
17011.230469	-78.022285
17054.296875	-79.350197
17097.363281	-78.998253
17140.429688	-81.786301
17183.496094	-81.906998
17226.562500	-79.224831
17269.628906	-77.709824
17312.695312	-77.687096
17355.761719	-78.317032
17398.828125	-77.176857
17441.894531	-78.315857
17484.960938	-80.034607
17528.027344	-82.131027
17571.093750	-81.361282
17614.160156	-80.471085
17657.226562	-81.045723
17700.292969	-80.037186
17743.359375	-81.843315
17786.425781	-80.262932
17829.492188	-80.899590
17872.558594	-81.135826
17915.625000	-82.713860
17958.691406	-82.123726
18001.757812	-81.652489
18044.824219	-85.489342
18087.890625	-84.628380
18130.957031	-84.792458
18174.023438	-86.790894
18217.089844	-89.085136
18260.156250	-87.050591
18303.222656	-85.066994
18346.289062	-84.178070
18389.355469	-81.659569
18432.421875	-83.301407
18475.488281	-84.631241
18518.554688	-87.112862
18561.621094	-88.978287
18604.687500	-87.654922
18647.753906	-87.237991
18690.820312	-84.118240
18733.886719	-85.186150
18776.953125	-86.312164
18820.019531	-86.949890
18863.085938	-88.282028
18906.152344	-88.215378
18949.218750	-89.740219
18992.285156	-85.395912
19035.351562	-86.306091
19078.417969	-87.420837
19121.484375	-87.793549
19164.550781	-87.459518
19207.617188	-86.815125
19250.683594	-90.504082
19293.750000	-91.828003
19336.816406	-93.390816
19379.882812	-92.005287
19422.949219	-91.573868
19466.015625	-91.936234
19509.082031	-91.033249
19552.148438	-94.110985
19595.214844	-96.719795
19638.281250	-99.346214
19681.347656	-95.418060
19724.414062	-94.484978
19767.480469	-98.276436
19810.546875	-99.860054
19853.613281	-102.297661
19896.679688	-103.646912
19939.746094	-106.210304
19982.812500	-107.140373
20025.878906	-104.996506
20068.945312	-103.556808
20112.011719	-102.744431
20155.078125	-106.512894
20198.144531	-104.034065
20241.210938	-106.151314
20284.277344	-108.887917
20327.343750	-109.656723
20370.410156	-109.057137
20413.476562	-109.806168
20456.542969	-110.374550
20499.609375	-109.460854
20542.675781	-109.729942
20585.742188	-110.531052
20628.808594	-112.254494
20671.875000	-114.397942
20714.941406	-114.936951
20758.007812	-114.685600
20801.074219	-113.776787
20844.140625	-115.646255
20887.207031	-116.398949
20930.273438	-116.445763
20973.339844	-116.764977
21016.406250	-116.923187
21059.472656	-116.852264
21102.539062	-116.698601
21145.605469	-117.013458
21188.671875	-117.030464
21231.738281	-116.942192
21274.804688	-116.757980
21317.871094	-116.701820
21360.937500	-116.773003
21404.003906	-116.655663
21447.070312	-116.937866
21490.136719	-116.666214
21533.203125	-116.888351
21576.269531	-116.922356
21619.335938	-116.958122
21662.402344	-117.103394
21705.468750	-116.898979
21748.535156	-117.045448
21791.601562	-116.991020
21834.667969	-117.080620
21877.734375	-116.520592
21920.800781	-116.459389
21963.867188	-117.031540
22006.933594	-116.929047
