Frequency (Hz)	Level (dB)
43.066406	-28.103012
86.132812	-21.591965
129.199219	-19.441973
172.265625	-16.946131
215.332031	-13.971216
258.398438	-12.964677
301.464844	-15.531288
344.531250	-16.660030
387.597656	-18.272078
430.664062	-19.281990
473.730469	-17.801676
516.796875	-17.458324
559.863281	-18.290718
602.929688	-20.776108
645.996094	-21.444372
689.062500	-20.558773
732.128906	-21.430626
775.195312	-23.203239
818.261719	-22.008598
861.328125	-22.582172
904.394531	-22.091160
947.460938	-21.461824
990.527344	-24.676811
1033.593750	-24.700092
1076.660156	-23.483999
1119.726562	-26.053400
1162.792969	-26.068766
1205.859375	-25.111025
1248.925781	-22.913925
1291.992188	-22.388943
1335.058594	-25.723160
1378.125000	-24.269037
1421.191406	-20.984522
1464.257812	-23.148472
1507.324219	-28.321426
1550.390625	-27.227390
1593.457031	-26.244122
1636.523438	-27.703667
1679.589844	-28.543669
1722.656250	-29.317999
1765.722656	-26.307280
1808.789062	-28.589798
1851.855469	-29.069601
1894.921875	-24.948484
1937.988281	-25.913628
1981.054688	-30.595444
2024.121094	-32.780811
2067.187500	-30.470873
2110.253906	-26.105227
2153.320312	-24.905035
2196.386719	-28.181944
2239.453125	-30.092140
2282.519531	-31.501537
2325.585938	-31.656445
2368.652344	-30.064713
2411.718750	-31.759371
2454.785156	-30.435627
2497.851562	-27.634802
2540.917969	-27.090162
2583.984375	-27.967777
2627.050781	-29.866714
2670.117188	-31.801758
2713.183594	-33.209534
2756.250000	-32.550652
2799.316406	-29.624357
2842.382812	-28.551867
2885.449219	-29.947781
2928.515625	-31.732182
2971.582031	-32.689137
3014.648438	-34.526722
3057.714844	-35.284912
3100.781250	-34.909801
3143.847656	-33.179066
3186.914062	-32.074913
3229.980469	-33.342346
3273.046875	-34.094788
3316.113281	-33.597778
3359.179688	-33.511879
3402.246094	-34.411652
3445.312500	-35.761990
3488.378906	-35.290180
3531.445312	-33.473957
3574.511719	-33.064960
3617.578125	-34.512329
3660.644531	-34.921436
3703.710938	-34.751415
3746.777344	-33.930157
3789.843750	-33.540321
3832.910156	-34.265862
3875.976562	-35.048325
3919.042969	-35.424900
3962.109375	-36.433147
4005.175781	-37.952641
4048.242188	-38.893513
4091.308594	-39.353024
4134.375000	-38.738941
4177.441406	-37.361519
4220.507812	-35.661240
4263.574219	-34.833717
4306.640625	-35.504871
4349.707031	-36.617599
4392.773438	-37.820648
4435.839844	-37.911221
4478.906250	-37.955975
4521.972656	-39.110466
4565.039062	-39.748764
4608.105469	-40.116264
4651.171875	-39.153313
4694.238281	-38.021000
4737.304688	-37.460083
4780.371094	-38.795929
4823.437500	-41.046158
4866.503906	-41.206947
4909.570312	-40.422195
4952.636719	-40.335773
4995.703125	-40.057846
5038.769531	-40.378551
5081.835938	-41.381237
5124.902344	-41.662483
5167.968750	-41.710159
5211.035156	-41.685421
5254.101562	-41.178261
5297.167969	-40.609467
5340.234375	-40.952126
5383.300781	-41.860661
5426.367188	-42.492718
5469.433594	-42.882015
5512.500000	-42.897049
5555.566406	-42.688976
5598.632812	-42.808491
5641.699219	-42.606068
5684.765625	-42.684048
5727.832031	-43.301376
5770.898438	-43.817989
5813.964844	-44.114094
5857.031250	-44.311661
5900.097656	-43.884949
5943.164062	-43.355892
5986.230469	-44.133141
6029.296875	-44.950264
6072.363281	-45.132984
6115.429688	-45.161121
6158.496094	-45.125801
6201.562500	-45.296982
6244.628906	-45.447670
6287.695312	-45.212757
6330.761719	-45.197277
6373.828125	-45.311230
6416.894531	-45.253983
6459.960938	-45.926037
6503.027344	-46.283131
6546.093750	-46.341709
6589.160156	-46.585163
6632.226562	-46.386086
6675.292969	-46.938446
6718.359375	-47.875134
6761.425781	-48.501957
6804.492188	-48.906616
6847.558594	-49.205612
6890.625000	-49.721615
6933.691406	-50.336334
6976.757812	-50.482544
7019.824219	-50.300602
7062.890625	-49.927521
7105.957031	-49.210991
7149.023438	-49.194553
7192.089844	-50.360237
7235.156250	-50.947113
7278.222656	-51.275997
7321.289062	-51.614559
7364.355469	-51.639763
7407.421875	-51.712826
7450.488281	-51.842785
7493.554688	-51.944305
7536.621094	-51.327213
7579.687500	-50.756287
7622.753906	-51.365574
7665.820312	-52.498734
7708.886719	-53.184349
7751.953125	-53.717361
7795.019531	-54.191193
7838.085938	-54.546082
7881.152344	-54.900150
7924.218750	-55.218044
7967.285156	-55.427921
8010.351562	-55.414879
8053.417969	-55.427937
8096.484375	-55.877571
8139.550781	-56.461483
8182.617188	-56.833939
8225.683594	-57.048355
8268.750000	-57.101471
8311.816406	-57.052006
8354.882812	-57.343834
8397.949219	-57.486862
8441.015625	-57.825752
8484.082031	-57.969913
8527.148438	-57.799850
8570.214844	-57.887802
8613.281250	-58.124256
8656.347656	-58.415211
8699.414062	-59.129112
8742.480469	-59.740936
8785.546875	-60.122704
8828.613281	-60.156742
8871.679688	-60.067387
8914.746094	-59.690311
8957.812500	-59.626854
9000.878906	-60.043613
9043.945312	-60.781975
9087.011719	-61.288212
9130.078125	-61.570278
9173.144531	-61.750233
9216.210938	-61.732746
9259.277344	-61.781590
9302.343750	-62.031780
9345.410156	-62.430271
9388.476562	-62.644886
9431.542969	-62.231495
9474.609375	-61.655354
9517.675781	-61.677242
9560.742188	-62.142712
9603.808594	-62.337940
9646.875000	-62.642601
9689.941406	-62.930859
9733.007812	-63.059467
9776.074219	-63.180447
9819.140625	-63.223259
9862.207031	-63.207890
9905.273438	-63.197235
9948.339844	-63.239700
9991.406250	-63.155670
10034.472656	-63.079933
10077.539062	-63.097813
10120.605469	-63.242950
10163.671875	-63.594540
10206.738281	-63.866516
10249.804688	-63.958344
10292.871094	-64.278847
10335.937500	-64.186798
10379.003906	-64.316940
10422.070312	-64.598122
10465.136719	-64.893127
10508.203125	-64.997467
10551.269531	-64.746544
10594.335938	-64.679741
10637.402344	-64.382011
10680.468750	-64.400299
10723.535156	-64.902863
10766.601562	-65.406319
10809.667969	-65.831757
10852.734375	-66.215004
10895.800781	-66.350937
10938.867188	-66.659378
10981.933594	-67.134743
11025.000000	-67.729370
11068.066406	-68.233147
11111.132812	-68.506157
11154.199219	-68.795219
11197.265625	-68.795616
11240.332031	-68.749413
11283.398438	-68.622177
11326.464844	-68.428123
11369.531250	-68.372231
11412.597656	-68.371910
11455.664062	-68.529953
11498.730469	-68.675316
11541.796875	-69.056458
11584.863281	-69.361649
11627.929688	-69.683243
11670.996094	-70.265007
11714.062500	-70.653793
11757.128906	-70.676239
11800.195312	-70.993439
11843.261719	-71.318748
11886.328125	-71.734863
11929.394531	-72.678665
11972.460938	-73.391754
12015.527344	-73.484970
12058.593750	-73.863892
12101.660156	-74.287758
12144.726562	-74.653450
12187.792969	-74.994141
12230.859375	-75.112061
12273.925781	-75.235924
12316.992188	-75.699135
12360.058594	-76.077522
12403.125000	-76.652603
12446.191406	-76.773567
12489.257812	-77.415649
12532.324219	-77.925041
12575.390625	-78.467361
12618.457031	-78.911781
12661.523438	-79.449295
12704.589844	-79.767685
12747.656250	-79.531792
12790.722656	-80.061386
12833.789062	-80.945419
12876.855469	-81.831787
12919.921875	-82.552208
12962.988281	-83.571426
13006.054688	-83.981216
13049.121094	-84.299896
13092.187500	-86.736404
13135.253906	-89.271858
13178.320312	-89.051498
13221.386719	-89.246101
13264.453125	-90.374252
13307.519531	-91.975853
13350.585938	-92.616402
13393.652344	-92.056625
13436.718750	-92.414093
13479.785156	-93.421875
13522.851562	-94.235336
13565.917969	-95.164673
13608.984375	-96.237961
13652.050781	-96.026382
13695.117188	-97.616898
13738.183594	-98.378098
13781.250000	-98.953110
13824.316406	-98.981377
13867.382812	-99.266251
13910.449219	-99.450684
13953.515625	-99.380554
13996.582031	-99.620628
14039.648438	-99.904251
14082.714844	-100.084480
14125.781250	-100.168716
14168.847656	-100.337212
14211.914062	-100.486504
14254.980469	-100.699913
14298.046875	-100.950302
14341.113281	-101.141129
14384.179688	-101.151634
14427.246094	-101.225693
14470.312500	-101.220459
14513.378906	-101.144012
14556.445312	-101.262489
14599.511719	-101.396194
14642.578125	-101.491882
14685.644531	-101.591766
14728.710938	-101.661469
14771.777344	-101.690468
14814.843750	-101.825020
14857.910156	-102.001671
14900.976562	-102.138405
14944.042969	-102.229408
14987.109375	-102.151917
15030.175781	-102.375725
15073.242188	-102.540260
15116.308594	-102.677185
15159.375000	-103.502281
15202.441406	-104.513527
15245.507812	-104.898003
15288.574219	-104.981644
15331.640625	-105.034203
15374.707031	-105.009705
15417.773438	-105.082901
15460.839844	-105.267036
15503.906250	-105.431801
15546.972656	-105.477684
15590.039062	-105.497330
15633.105469	-105.590172
15676.171875	-105.719078
15719.238281	-106.746033
15762.304688	-111.900337
15805.371094	-120.460373
15848.437500	-124.669952
15891.503906	-130.290176
15934.570312	-132.245346
15977.636719	-132.248154
16020.703125	-132.365372
16063.769531	-132.809235
16106.835938	-133.361847
16149.902344	-133.666168
16192.968750	-133.709351
16236.035156	-133.418640
16279.101562	-133.162018
16322.167969	-132.558914
16365.234375	-132.180176
16408.300781	-132.890167
16451.367188	-133.753647
16494.433594	-133.849060
16537.500000	-133.340073
16580.566406	-133.017731
16623.632812	-132.587067
16666.699219	-132.412048
16709.765625	-132.999664
16752.832031	-134.271973
16795.898438	-134.530777
16838.964844	-134.312820
16882.031250	-134.849060
16925.097656	-134.836853
16968.164062	-134.557495
17011.230469	-133.707779
17054.296875	-132.695557
17097.363281	-133.770889
17140.429688	-134.963882
17183.496094	-135.372971
17226.562500	-135.234497
17269.628906	-134.242020
17312.695312	-134.401962
17355.761719	-135.511047
17398.828125	-135.463715
17441.894531	-135.325775
17484.960938	-135.950089
17528.027344	-135.986740
17571.093750	-136.021530
17614.160156	-135.809021
17657.226562	-136.066971
17700.292969	-136.183578
17743.359375	-135.193451
17786.425781	-135.018188
17829.492188	-136.007584
17872.558594	-136.241928
17915.625000	-135.752396
17958.691406	-136.114487
18001.757812	-136.444641
18044.824219	-136.519806
18087.890625	-136.595596
18130.957031	-136.544540
18174.023438	-136.833542
18217.089844	-136.855698
18260.156250	-136.709442
18303.222656	-136.956284
18346.289062	-137.039795
18389.355469	-137.087585
18432.421875	-137.116180
18475.488281	-137.158768
18518.554688	-137.115860
18561.621094	-137.008987
18604.687500	-137.331314
18647.753906	-137.508606
18690.820312	-137.578903
18733.886719	-137.751602
18776.953125	-137.832382
18820.019531	-137.901276
18863.085938	-137.960236
18906.152344	-137.954758
18949.218750	-137.714371
18992.285156	-137.621964
19035.351562	-137.551666
19078.417969	-137.666336
19121.484375	-137.252609
19164.550781	-137.023499
19207.617188	-136.634964
19250.683594	-136.072922
19293.750000	-137.122528
19336.816406	-138.152344
19379.882812	-138.719681
19422.949219	-138.927063
19466.015625	-139.028397
19509.082031	-139.166519
19552.148438	-139.231567
19595.214844	-139.320572
19638.281250	-138.957016
19681.347656	-138.313828
19724.414062	-136.680664
19767.480469	-136.323013
19810.546875	-137.622101
19853.613281	-137.824615
19896.679688	-138.754349
19939.746094	-139.239212
19982.812500	-139.181702
20025.878906	-139.532944
20068.945312	-140.235184
20112.011719	-140.567535
20155.078125	-140.389084
20198.144531	-140.799942
20241.210938	-140.605576
20284.277344	-140.649841
20327.343750	-140.425140
20370.410156	-140.078171
20413.476562	-139.094421
20456.542969	-137.998718
20499.609375	-139.152695
20542.675781	-140.703156
20585.742188	-139.778503
20628.808594	-138.194031
20671.875000	-140.211426
20714.941406	-142.125153
20758.007812	-141.231812
20801.074219	-141.203506
20844.140625	-141.950394
20887.207031	-142.152954
20930.273438	-141.456863
20973.339844	-140.967911
21016.406250	-143.745102
21059.472656	-144.474930
21102.539062	-143.743271
21145.605469	-145.962189
21188.671875	-149.569290
21231.738281	-151.989441
21274.804688	-153.570801
21317.871094	-153.677261
21360.937500	-155.126617
21404.003906	-159.598114
21447.070312	-162.132202
21490.136719	-161.700928
21533.203125	-161.682175
21576.269531	-161.838333
21619.335938	-163.434830
21662.402344	-162.463852
21705.468750	-161.359787
21748.535156	-160.298462
21791.601562	-157.534561
21834.667969	-158.980484
21877.734375	-161.567047
21920.800781	-163.490051
21963.867188	-165.244751
22006.933594	-168.908096
